File: TAP_Report/Data/Res_PB/100 uM RS 10mM PB_01_CV_C01_2.mpt
EC-Lab ASCII FILE
Nb header lines : 53

Cyclic Voltammetry

Run on channel : 1 (SN 0696)
User :
Electrode connection : standard
Ewe ctrl range : min = -10.00 V, max = 10.00 V
Ewe,I filtering : 50 kHz
Channel : Grounded
Acquisition started on : 05/17/2017 12:53:20
Saved on :
	File : 100 uM RS 10mM PB_01_CV_C01.mpr
	Directory : \\userfs\st659\w2k\EC-Lab\Data\ITO Characterisation 17-5-17\
	Host : 144.32.136.43
Device : SP-300 (SN 0182)
Address : USB
EC-Lab for windows v10.44 (software)
Internet server v10.44 (firmware)
Command interpretor v10.44 (firmware)
Electrode material :
Initial state :
Electrolyte :
Comments :
Cable : standard
Electrode surface area : 0.001 cm²
Characteristic mass : 0.001 g
Equivalent Weight : 0.000 g/eq.
Density : 0.000 g/cm3
Ei (V)              0.000
vs.                 Eoc
dE/dt               20.000
dE/dt unit          mV/s
E1 (V)              0.100
vs.                 Ref
Step percent        50
N                   10
E range min (V)     -10.000
E range max (V)     10.000
I Range             Auto
I Range min         Unset
I Range max         Unset
I Range init        Unset
Bandwidth           8
E2 (V)              -0.600
vs.                 Ref
nc cycles           2
Reverse Scan        1
Ef (V)              0.000
vs.                 Eoc

mode	ox/red	error	control changes	counter inc.	time/s	control/V	Ewe/V	<I>/mA	cycle number	(Q-Qo)/C	P/W
2	1	0	0	1	52.1308	-0.599827	-0.600035	-0.00894414	2	-0.000142366	5.36679e-06
2	1	0	1	1	52.7223	-0.587998	-0.588213	-0.0080936	2	-0.000147367	4.76076e-06
2	1	0	1	1	53.3887	-0.57467	-0.574878	-0.00739938	2	-0.000152509	4.25374e-06
2	1	0	1	1	54.0551	-0.561342	-0.561553	-0.00683058	2	-0.000157233	3.83574e-06
2	1	0	1	1	54.7216	-0.548012	-0.548219	-0.00634196	2	-0.000161608	3.47678e-06
2	1	0	1	1	55.388	-0.534684	-0.534903	-0.0059141	2	-0.000165678	3.16347e-06
2	1	0	1	1	56.0544	-0.521356	-0.521578	-0.00552852	2	-0.000169477	2.88355e-06
2	1	0	1	1	56.7208	-0.508028	-0.508252	-0.00517956	2	-0.000173032	2.63253e-06
2	1	0	1	1	57.3872	-0.4947	-0.494917	-0.00485684	2	-0.000176364	2.40373e-06
2	1	0	1	1	58.0536	-0.481372	-0.481604	-0.00456044	2	-0.00017949	2.19632e-06
2	1	0	1	1	58.72	-0.468044	-0.468263	-0.00428305	2	-0.000182425	2.00559e-06
2	1	0	1	1	59.3864	-0.454716	-0.454902	-0.00402591	2	-0.000185182	1.83139e-06
2	1	0	1	1	60.0528	-0.441388	-0.441608	-0.00378557	2	-0.000187774	1.67174e-06
2	1	0	1	1	60.7192	-0.428061	-0.428261	-0.0035595	2	-0.00019021	1.5244e-06
2	1	0	1	1	61.3856	-0.414732	-0.414941	-0.0033467	2	-0.0001925	1.38868e-06
2	1	0	0	1	62.0521	-0.401402	-0.401633	-0.00314587	2	-0.000194653	1.26349e-06
2	1	0	0	1	62.7185	-0.388074	-0.388305	-0.00295418	2	-0.000196675	1.14712e-06
2	1	0	0	1	63.3849	-0.374746	-0.374949	-0.00277071	2	-0.000198572	1.03887e-06
2	1	0	0	1	64.0513	-0.361418	-0.36164	-0.00259478	2	-0.000200349	9.38377e-07
2	1	0	0	1	64.7177	-0.34809	-0.348297	-0.00242293	2	-0.000202011	8.43901e-07
2	1	0	0	1	65.3842	-0.33476	-0.334941	-0.0022561	2	-0.00020356	7.55663e-07
2	1	0	0	1	66.0506	-0.321432	-0.321596	-0.00209148	2	-0.000204999	6.72612e-07
2	1	0	0	1	66.717	-0.308104	-0.308295	-0.00193047	2	-0.000206329	5.95154e-07
2	1	0	0	1	67.3834	-0.294776	-0.294937	-0.00177323	2	-0.000207553	5.22993e-07
2	1	0	0	1	68.0498	-0.281448	-0.28163	-0.0016217	2	-0.000208674	4.5672e-07
2	1	0	0	1	68.7162	-0.26812	-0.268303	-0.0014779	2	-0.000209696	3.96524e-07
2	1	0	0	1	69.3826	-0.254792	-0.254983	-0.0013459	2	-0.000210626	3.43183e-07
2	1	0	0	1	70.049	-0.241464	-0.241653	-0.00122803	2	-0.000211473	2.96757e-07
2	1	0	0	1	70.7154	-0.228136	-0.228332	-0.00113055	2	-0.000212249	2.5814e-07
2	1	0	0	1	71.3818	-0.214809	-0.214994	-0.00105182	2	-0.000212965	2.26135e-07
2	1	0	0	1	72.0482	-0.20148	-0.201652	-0.000989789	2	-0.000213635	1.99593e-07
2	1	0	1	1	72.7147	-0.18815	-0.188346	-0.000939455	2	-0.000214268	1.76942e-07
2	1	0	1	1	73.3811	-0.174822	-0.175003	-0.000897065	2	-0.000214871	1.56989e-07
2	1	0	1	1	74.0475	-0.161494	-0.161657	-0.000859731	2	-0.000215446	1.38981e-07
2	1	0	1	1	74.7139	-0.148166	-0.148321	-0.000826689	2	-0.000215999	1.22615e-07
2	1	0	1	1	75.3803	-0.134838	-0.13499	-0.000795505	2	-0.00021653	1.07385e-07
2	1	0	1	1	76.0468	-0.121508	-0.121656	-0.0007663	2	-0.000217041	9.32249e-08
2	1	0	1	1	76.7132	-0.10818	-0.108342	-0.000737939	2	-0.000217533	7.995e-08
2	1	0	1	1	77.3796	-0.0948521	-0.0950101	-0.00071184	2	-0.000218007	6.7632e-08
2	1	0	1	1	78.046	-0.0815242	-0.0817174	-0.000686628	2	-0.000218463	5.61095e-08
2	1	0	1	1	78.7124	-0.0681965	-0.0683841	-0.00066154	2	-0.000218903	4.52388e-08
2	1	0	1	1	79.3788	-0.0548682	-0.0550543	-0.000636711	2	-0.000219327	3.50537e-08
2	1	0	1	1	80.0452	-0.0415404	-0.0417154	-0.000612734	2	-0.000219734	2.55605e-08
2	1	0	1	1	80.7116	-0.0282121	-0.0283664	-0.000589011	2	-0.000220125	1.67081e-08
2	1	0	1	1	81.378	-0.0148843	-0.0150493	-0.000566229	2	-0.000220501	8.52137e-09
2	1	0	1	1	82.0444	-0.00155035	-0.00172125	-0.000543332	2	-0.000220861	9.35213e-10
2	1	0	1	1	82.7108	0.0117717	0.0116323	-0.000520858	2	-0.000221206	6.05877e-09
2	1	0	0	1	83.3773	0.0251017	0.0249743	-0.000498761	2	-0.000221537	1.24562e-08
2	1	0	1	1	84.0936	0.0394278	0.0393021	-0.000475831	2	-0.000221878	1.87012e-08
2	1	0	0	1	84.7601	0.0527579	0.0526336	-0.000454145	2	-0.000222179	2.39033e-08
2	1	0	0	1	85.4265	0.0660857	0.0659447	-0.000432187	2	-0.000222465	2.85005e-08
2	1	0	0	1	86.0929	0.0794139	0.0792787	-0.000409201	2	-0.000222737	3.24409e-08
2	1	0	0	1	86.7593	0.0927417	0.0925883	-0.000386102	2	-0.000222993	3.57486e-08
2	0	0	1	1	87.2096	0.098073	0.0979333	-0.000430413	2	-0.000223165	4.21518e-08
2	0	0	1	1	87.876	0.0847448	0.0845887	-0.000545143	2	-0.000223503	4.6113e-08
2	0	0	1	1	88.5424	0.071417	0.0712534	-0.000625974	2	-0.000223903	4.46028e-08
2	0	0	1	1	89.2088	0.0580892	0.0579727	-0.000690818	2	-0.000224352	4.00486e-08
2	0	0	1	1	89.8752	0.0447609	0.0446134	-0.000746138	2	-0.00022484	3.32878e-08
2	0	0	1	1	90.5416	0.0314331	0.0312758	-0.000793333	2	-0.000225362	2.48121e-08
2	0	0	1	1	91.208	0.0181049	0.0179429	-0.000835581	2	-0.000225913	1.49927e-08
2	0	0	1	1	91.8744	0.00477706	0.00460462	-0.000873868	2	-0.000226492	4.02383e-09
2	0	0	0	1	92.5409	-0.00855297	-0.00874348	-0.000908587	2	-0.000227095	7.94421e-09
2	0	0	0	1	93.2073	-0.0218812	-0.0220663	-0.000940263	2	-0.00022772	2.07481e-08
2	0	0	0	1	93.8737	-0.035209	-0.0353907	-0.000970049	2	-0.000228366	3.43307e-08
2	0	0	0	1	94.5734	-0.0492028	-0.0493903	-0.000997368	2	-0.000229065	4.92603e-08
2	0	0	0	1	95.2398	-0.0625311	-0.0626923	-0.00102437	2	-0.000229748	6.42204e-08
2	0	0	0	1	95.9062	-0.0758589	-0.0760381	-0.00105052	2	-0.000230448	7.98798e-08
2	0	0	0	1	96.5726	-0.0891871	-0.0893334	-0.00107629	2	-0.000231166	9.6149e-08
2	0	0	1	1	97.2391	-0.102517	-0.102666	-0.00110222	2	-0.000231902	1.1316e-07
2	0	0	1	1	97.9055	-0.115845	-0.115997	-0.00112848	2	-0.000232654	1.30901e-07
2	0	0	1	1	98.5719	-0.129173	-0.129353	-0.00115575	2	-0.000233424	1.49499e-07
2	0	0	1	1	99.2383	-0.142501	-0.142696	-0.00118375	2	-0.000234213	1.68917e-07
2	0	0	1	1	99.9048	-0.155831	-0.156004	-0.00121404	2	-0.000235021	1.89395e-07
2	0	0	1	1	100.571	-0.169159	-0.169358	-0.00124805	2	-0.00023585	2.11367e-07
2	0	0	1	1	101.238	-0.182487	-0.182685	-0.00128892	2	-0.000236704	2.35467e-07
2	0	0	1	1	101.904	-0.195815	-0.195984	-0.00134075	2	-0.000237589	2.62766e-07
2	0	0	1	1	102.57	-0.209143	-0.209309	-0.00141088	2	-0.000238514	2.9531e-07
2	0	0	1	1	103.237	-0.222471	-0.222668	-0.00150701	2	-0.000239495	3.35562e-07
2	0	0	1	1	103.903	-0.235799	-0.235978	-0.00163429	2	-0.00024055	3.85658e-07
2	0	0	1	1	104.57	-0.249127	-0.24932	-0.001797	2	-0.000241701	4.48028e-07
2	0	0	1	1	105.236	-0.262455	-0.262621	-0.00199073	2	-0.000242972	5.22806e-07
2	0	0	1	1	105.902	-0.275783	-0.275954	-0.0022119	2	-0.000244381	6.1038e-07
2	0	0	1	1	106.569	-0.289111	-0.289283	-0.00245332	2	-0.000245945	7.09705e-07
2	0	0	1	1	107.235	-0.302439	-0.302627	-0.0027076	2	-0.000247675	8.19393e-07
2	0	0	0	1	107.902	-0.315769	-0.315965	-0.00296763	2	-0.000249576	9.37668e-07
2	0	0	0	1	108.568	-0.329097	-0.329295	-0.00322633	2	-0.000251651	1.06242e-06
2	0	0	0	1	109.234	-0.342425	-0.34265	-0.00348129	2	-0.000253896	1.19287e-06
2	0	0	0	1	109.901	-0.355753	-0.35598	-0.00372971	2	-0.00025631	1.3277e-06
2	0	0	0	1	110.567	-0.369083	-0.369277	-0.00397093	2	-0.000258886	1.46637e-06
2	0	0	0	1	111.234	-0.382411	-0.382632	-0.00420799	2	-0.000261622	1.61011e-06
2	0	0	0	1	111.9	-0.395739	-0.395959	-0.00444254	2	-0.000264515	1.75907e-06
2	0	0	0	1	112.567	-0.409067	-0.409273	-0.00467633	2	-0.000267564	1.9139e-06
2	0	0	0	1	113.233	-0.422395	-0.422627	-0.00491465	2	-0.00027077	2.07706e-06
2	0	0	0	1	113.899	-0.435723	-0.435931	-0.00515277	2	-0.000274134	2.24625e-06
2	0	0	0	1	114.566	-0.449051	-0.44925	-0.00539767	2	-0.00027766	2.4249e-06
2	0	0	0	1	115.232	-0.462379	-0.4626	-0.00564774	2	-0.00028135	2.61264e-06
2	0	0	0	1	115.899	-0.475707	-0.475934	-0.0059037	2	-0.000285209	2.80977e-06
2	0	0	0	1	116.565	-0.489035	-0.489264	-0.00616556	2	-0.000289241	3.01658e-06
2	0	0	0	1	117.231	-0.502363	-0.502605	-0.0064315	2	-0.000293448	3.2325e-06
2	0	0	1	1	117.898	-0.515693	-0.515908	-0.00670259	2	-0.000297835	3.45792e-06
2	0	0	1	1	118.564	-0.529021	-0.529249	-0.00697997	2	-0.000302405	3.69414e-06
2	0	0	1	1	119.231	-0.542349	-0.542565	-0.00725575	2	-0.000307158	3.93672e-06
2	0	0	1	1	119.897	-0.555677	-0.555904	-0.00753761	2	-0.000312099	4.19019e-06
2	0	0	1	1	120.563	-0.569005	-0.569238	-0.00782283	2	-0.000317228	4.45305e-06
2	0	0	1	1	121.23	-0.582335	-0.582541	-0.00811274	2	-0.00032255	4.726e-06
2	0	0	1	1	121.896	-0.595663	-0.595881	-0.0084027	2	-0.000328063	5.007e-06
2	0	0	1	1	122.105	-0.60016	-0.600317	-0.00854481	2	-0.000329828	5.1296e-06