File: TAP_Report/Data/Res_PB/100 uM RS 10mM PB_03_CV_C01_2.mpt
EC-Lab ASCII FILE
Nb header lines : 53

Cyclic Voltammetry

Run on channel : 1 (SN 0696)
User :
Electrode connection : standard
Ewe ctrl range : min = -10.00 V, max = 10.00 V
Ewe,I filtering : 50 kHz
Channel : Grounded
Acquisition started on : 05/17/2017 12:53:20
Saved on :
	File : 100 uM RS 10mM PB_03_CV_C01.mpr
	Directory : \\userfs\st659\w2k\EC-Lab\Data\ITO Characterisation 17-5-17\
	Host : 144.32.136.43
Device : SP-300 (SN 0182)
Address : USB
EC-Lab for windows v10.44 (software)
Internet server v10.44 (firmware)
Command interpretor v10.44 (firmware)
Electrode material :
Initial state :
Electrolyte :
Comments :
Cable : standard
Electrode surface area : 0.001 cm²
Characteristic mass : 0.001 g
Equivalent Weight : 0.000 g/eq.
Density : 0.000 g/cm3
Ei (V)              0.000
vs.                 Eoc
dE/dt               100.000
dE/dt unit          mV/s
E1 (V)              0.100
vs.                 Ref
Step percent        50
N                   10
E range min (V)     -10.000
E range max (V)     10.000
I Range             Auto
I Range min         Unset
I Range max         Unset
I Range init        Unset
Bandwidth           8
E2 (V)              -0.600
vs.                 Ref
nc cycles           2
Reverse Scan        1
Ef (V)              0.000
vs.                 Eoc

mode	ox/red	error	control changes	counter inc.	time/s	control/V	Ewe/V	<I>/mA	cycle number	(Q-Qo)/C	P/W
2	1	0	0	1	352.537	-0.60016	-0.60039	-0.0103013	2	-3.07096e-05	6.18481e-06
2	1	0	1	1	352.655	-0.588329	-0.588585	-0.00914854	2	-3.18434e-05	5.3847e-06
2	1	0	1	1	352.788	-0.57501	-0.575248	-0.00833206	2	-3.30032e-05	4.793e-06
2	1	0	0	1	352.922	-0.561668	-0.561898	-0.00763889	2	-3.40649e-05	4.29228e-06
2	1	0	0	1	353.055	-0.548347	-0.548561	-0.00703358	2	-3.50389e-05	3.85835e-06
2	1	0	1	1	353.188	-0.535016	-0.535241	-0.006492	2	-3.59374e-05	3.47478e-06
2	1	0	1	1	353.321	-0.52169	-0.521927	-0.0060069	2	-3.67676e-05	3.13516e-06
2	1	0	1	1	353.455	-0.508369	-0.508622	-0.00556494	2	-3.75354e-05	2.83045e-06
2	1	0	0	1	353.588	-0.495027	-0.495234	-0.00516196	2	-3.8248e-05	2.55638e-06
2	1	0	0	1	353.721	-0.481705	-0.481941	-0.00479233	2	-3.89083e-05	2.30962e-06
2	1	0	1	1	353.855	-0.468371	-0.468604	-0.00445227	2	-3.95222e-05	2.08635e-06
2	1	0	1	1	353.988	-0.455049	-0.455253	-0.00413777	2	-4.00917e-05	1.88373e-06
2	1	0	1	1	354.121	-0.441727	-0.44195	-0.00385001	2	-4.06211e-05	1.70151e-06
2	1	0	0	1	354.254	-0.428386	-0.428629	-0.00357985	2	-4.11142e-05	1.53443e-06
2	1	0	0	1	354.388	-0.415071	-0.415302	-0.00333079	2	-4.15721e-05	1.38328e-06
2	1	0	1	1	354.521	-0.401729	-0.401977	-0.00310003	2	-4.19986e-05	1.24614e-06
2	1	0	1	1	354.654	-0.388408	-0.388661	-0.00288306	2	-4.23946e-05	1.12053e-06
2	1	0	1	1	354.787	-0.375086	-0.375304	-0.00267772	2	-4.27626e-05	1.00496e-06
2	1	0	0	1	354.921	-0.361751	-0.361997	-0.00248464	2	-4.31046e-05	8.99433e-07
2	1	0	0	1	355.054	-0.34843	-0.348656	-0.00229941	2	-4.3421e-05	8.01704e-07
2	1	0	1	1	355.187	-0.335088	-0.335282	-0.00212158	2	-4.37136e-05	7.11327e-07
2	1	0	1	1	355.321	-0.321766	-0.321971	-0.00194955	2	-4.39825e-05	6.27698e-07
2	1	0	0	1	355.454	-0.308438	-0.308651	-0.00178195	2	-4.42291e-05	5.5e-07
2	1	0	0	1	355.587	-0.29511	-0.295279	-0.00161811	2	-4.44535e-05	4.77794e-07
2	1	0	0	1	355.72	-0.281788	-0.281941	-0.00146041	2	-4.46563e-05	4.1175e-07
2	1	0	1	1	355.854	-0.268447	-0.268641	-0.00130713	2	-4.48387e-05	3.51149e-07
2	1	0	1	1	355.987	-0.255127	-0.255318	-0.00116235	2	-4.50008e-05	2.96768e-07
2	1	0	0	1	356.12	-0.24179	-0.241977	-0.00102879	2	-4.51447e-05	2.48943e-07
2	1	0	0	1	356.254	-0.228469	-0.228677	-0.000914897	2	-4.52718e-05	2.09216e-07
2	1	0	0	1	356.387	-0.215147	-0.215352	-0.000819518	2	-4.5385e-05	1.76485e-07
2	1	0	1	1	356.52	-0.201806	-0.201996	-0.000741352	2	-4.54868e-05	1.4975e-07
2	1	0	1	1	356.653	-0.188491	-0.188702	-0.000681523	2	-4.55793e-05	1.28605e-07
2	1	0	0	1	356.787	-0.175149	-0.175346	-0.000630983	2	-4.56646e-05	1.1064e-07
2	1	0	0	1	356.92	-0.161827	-0.162	-0.000587911	2	-4.57437e-05	9.52418e-08
2	1	0	0	1	357.053	-0.148506	-0.148679	-0.000550753	2	-4.58173e-05	8.18853e-08
2	1	0	1	1	357.187	-0.135171	-0.135345	-0.000516569	2	-4.58864e-05	6.99153e-08
2	1	0	1	1	357.336	-0.12018	-0.120326	-0.00048018	2	-4.59584e-05	5.77781e-08
2	1	0	0	1	357.486	-0.105189	-0.105331	-0.000446112	2	-4.60257e-05	4.69897e-08
2	1	0	1	1	357.62	-0.0918474	-0.0919932	-0.000416611	2	-4.6082e-05	3.83254e-08
2	1	0	1	1	357.753	-0.0785259	-0.0787023	-0.000390412	2	-4.61347e-05	3.07263e-08
2	1	0	0	1	357.886	-0.0651909	-0.0653698	-0.000363156	2	-4.61837e-05	2.37395e-08
2	1	0	0	1	358.02	-0.0518693	-0.0520588	-0.00033501	2	-4.6229e-05	1.74402e-08
2	1	0	0	1	358.153	-0.0385478	-0.0387019	-0.000305687	2	-4.62705e-05	1.18307e-08
2	1	0	1	1	358.286	-0.0252062	-0.0253777	-0.000278092	2	-4.63082e-05	7.05735e-09
2	1	0	1	1	358.419	-0.011889	-0.0120618	-0.000248972	2	-4.63422e-05	3.00304e-09
2	1	0	0	1	358.553	0.00145628	0.00129172	-0.000218824	2	-4.63722e-05	2.82659e-10
2	1	0	0	1	358.686	0.0147719	0.0146672	-0.000189902	2	-4.63983e-05	2.78534e-09
2	1	0	0	1	358.819	0.0280935	0.0279435	-0.00016209	2	-4.64206e-05	4.52936e-09
2	1	0	1	1	358.953	0.0414306	0.0413063	-0.000132378	2	-4.6439e-05	5.46806e-09
2	1	0	1	1	359.086	0.05475	0.0546546	-0.000102848	2	-4.64535e-05	5.62109e-09
2	1	0	0	1	359.219	0.0680916	0.0679869	-7.35619e-05	2	-4.64641e-05	5.00125e-09
2	1	0	0	1	359.352	0.0814132	0.0813048	-4.44571e-05	2	-4.64707e-05	3.61458e-09
2	1	0	1	1	359.486	0.0947436	0.0946247	-1.35684e-05	2	-4.64734e-05	1.28391e-09
2	0	0	1	1	359.589	0.0947458	0.0945721	-0.000350498	2	-4.64881e-05	3.31474e-08
2	0	0	0	1	359.723	0.0814065	0.0812524	-0.000515528	2	-4.6548e-05	4.18879e-08
2	0	0	0	1	359.856	0.0680849	0.067921	-0.000639459	2	-4.66265e-05	4.34327e-08
2	0	0	0	1	359.989	0.0547633	0.0545884	-0.000746681	2	-4.67202e-05	4.07601e-08
2	0	0	1	1	360.123	0.041424	0.0412234	-0.000843402	2	-4.68276e-05	3.47679e-08
2	0	0	1	1	360.256	0.0281068	0.0278952	-0.000931538	2	-4.69471e-05	2.59854e-08
2	0	0	0	1	360.406	0.0131038	0.0129466	-0.00101982	2	-4.70955e-05	1.32032e-08
2	0	0	1	1	360.556	-0.00189506	-0.00209314	-0.00110332	2	-4.72567e-05	2.3094e-09
2	0	0	1	1	360.689	-0.0152166	-0.0154072	-0.00117639	2	-4.74107e-05	1.81248e-08
2	0	0	0	1	360.822	-0.0285449	-0.0287181	-0.00124669	2	-4.75743e-05	3.58024e-08
2	0	0	0	1	360.956	-0.0418732	-0.0420708	-0.00131521	2	-4.77472e-05	5.53322e-08
2	0	0	0	1	361.089	-0.0551947	-0.0553925	-0.0013787	2	-4.79287e-05	7.63695e-08
2	0	0	1	1	361.222	-0.0685363	-0.068692	-0.00144094	2	-4.81189e-05	9.89812e-08
2	0	0	1	1	361.355	-0.0818579	-0.0820515	-0.00150372	2	-4.83171e-05	1.23382e-07
2	0	0	0	1	361.489	-0.0951928	-0.0953629	-0.001563	2	-4.85236e-05	1.49052e-07
2	0	0	0	1	361.622	-0.108514	-0.108675	-0.00162078	2	-4.87378e-05	1.76139e-07
2	0	0	0	1	361.755	-0.121836	-0.121998	-0.0016795	2	-4.89598e-05	2.04895e-07
2	0	0	1	1	361.889	-0.135178	-0.135352	-0.00173882	2	-4.91899e-05	2.35353e-07
2	0	0	1	1	362.022	-0.148493	-0.148691	-0.00179602	2	-4.94275e-05	2.67051e-07
2	0	0	0	1	362.155	-0.161834	-0.162038	-0.00185646	2	-4.96733e-05	3.00817e-07
2	0	0	0	1	362.288	-0.175156	-0.17534	-0.00191627	2	-4.99267e-05	3.36e-07
2	0	0	0	1	362.422	-0.188477	-0.188687	-0.00198269	2	-5.01884e-05	3.74107e-07
2	0	0	1	1	362.555	-0.201812	-0.201998	-0.00205433	2	-5.04595e-05	4.1497e-07
2	0	0	1	1	362.688	-0.215134	-0.215345	-0.00213799	2	-5.07407e-05	4.60405e-07
2	0	0	0	1	362.822	-0.228475	-0.228685	-0.00223713	2	-5.10345e-05	5.11599e-07
2	0	0	0	1	362.955	-0.241797	-0.24199	-0.00235866	2	-5.13424e-05	5.70773e-07
2	0	0	1	1	363.088	-0.255125	-0.255311	-0.00249941	2	-5.16682e-05	6.38126e-07
2	0	0	1	1	363.221	-0.268453	-0.268663	-0.00266151	2	-5.20143e-05	7.15049e-07
2	0	0	1	1	363.355	-0.281775	-0.281945	-0.00283339	2	-5.23823e-05	7.98862e-07
2	0	0	0	1	363.488	-0.295117	-0.295312	-0.00301703	2	-5.27746e-05	8.90964e-07
2	0	0	0	1	363.621	-0.308436	-0.308675	-0.00320592	2	-5.31912e-05	9.89586e-07
2	0	0	1	1	363.755	-0.321773	-0.321988	-0.00339718	2	-5.36338e-05	1.09385e-06
2	0	0	1	1	363.888	-0.335095	-0.335315	-0.0035946	2	-5.41016e-05	1.20532e-06
2	0	0	1	1	364.021	-0.348416	-0.348656	-0.00379415	2	-5.45959e-05	1.32286e-06
2	0	0	0	1	364.154	-0.361758	-0.361989	-0.00399701	2	-5.51178e-05	1.44687e-06
2	0	0	0	1	364.288	-0.375073	-0.375293	-0.00420574	2	-5.56663e-05	1.57838e-06
2	0	0	1	1	364.421	-0.388414	-0.388651	-0.00442445	2	-5.62443e-05	1.71956e-06
2	0	0	1	1	364.554	-0.401736	-0.40198	-0.00465249	2	-5.6851e-05	1.87021e-06
2	0	0	1	1	364.687	-0.415058	-0.41529	-0.00489396	2	-5.74889e-05	2.03241e-06
2	0	0	0	1	364.821	-0.428392	-0.428617	-0.00514639	2	-5.81607e-05	2.20583e-06
2	0	0	0	1	364.954	-0.441714	-0.441937	-0.00541521	2	-5.88663e-05	2.39318e-06
2	0	0	1	1	365.087	-0.455056	-0.455274	-0.0057003	2	-5.96099e-05	2.5952e-06
2	0	0	1	1	365.221	-0.468377	-0.468611	-0.0060041	2	-6.03915e-05	2.81358e-06
2	0	0	0	1	365.354	-0.481703	-0.481963	-0.0063192	2	-6.12148e-05	3.04562e-06
2	0	0	0	1	365.487	-0.495034	-0.49528	-0.00664828	2	-6.20812e-05	3.29276e-06
2	0	0	0	1	365.62	-0.508355	-0.508614	-0.00699611	2	-6.29922e-05	3.55832e-06
2	0	0	1	1	365.754	-0.521697	-0.521941	-0.00735923	2	-6.39519e-05	3.84108e-06
2	0	0	1	1	365.887	-0.535014	-0.535231	-0.00773465	2	-6.49594e-05	4.13982e-06
2	0	0	0	1	366.02	-0.548353	-0.548584	-0.00812574	2	-6.60194e-05	4.45765e-06
2	0	0	0	1	366.154	-0.561675	-0.561935	-0.00852867	2	-6.71309e-05	4.79256e-06
2	0	0	0	1	366.287	-0.574997	-0.575256	-0.0089462	2	-6.82972e-05	5.14635e-06
2	0	0	1	1	366.42	-0.588336	-0.588608	-0.00938405	2	-6.9522e-05	5.52353e-06
2	0	0	1	1	366.535	-0.599827	-0.60005	-0.00976308	2	-7.06249e-05	5.85834e-06