File: TAP_Report/Data/Res_PB/100 uM RS 10mM PB_06_CV_C01_2.mpt
EC-Lab ASCII FILE
Nb header lines : 53

Cyclic Voltammetry

Run on channel : 1 (SN 0696)
User :
Electrode connection : standard
Ewe ctrl range : min = -10.00 V, max = 10.00 V
Ewe,I filtering : 50 kHz
Channel : Grounded
Acquisition started on : 05/17/2017 12:53:20
Saved on :
	File : 100 uM RS 10mM PB_06_CV_C01.mpr
	Directory : \\userfs\st659\w2k\EC-Lab\Data\ITO Characterisation 17-5-17\
	Host : 144.32.136.43
Device : SP-300 (SN 0182)
Address : USB
EC-Lab for windows v10.44 (software)
Internet server v10.44 (firmware)
Command interpretor v10.44 (firmware)
Electrode material :
Initial state :
Electrolyte :
Comments :
Cable : standard
Electrode surface area : 0.001 cm²
Characteristic mass : 0.001 g
Equivalent Weight : 0.000 g/eq.
Density : 0.000 g/cm3
Ei (V)              0.000
vs.                 Eoc
dE/dt               1000.000
dE/dt unit          mV/s
E1 (V)              0.100
vs.                 Ref
Step percent        50
N                   10
E range min (V)     -10.000
E range max (V)     10.000
I Range             Auto
I Range min         Unset
I Range max         Unset
I Range init        Unset
Bandwidth           8
E2 (V)              -0.600
vs.                 Ref
nc cycles           2
Reverse Scan        1
Ef (V)              0.000
vs.                 Eoc

mode	ox/red	error	control changes	counter inc.	time/s	control/V	Ewe/V	<I>/mA	cycle number	(Q-Qo)/C	P/W
2	1	0	0	1	421.616	-0.60016	-0.600352	-0.0141162	2	-5.07142e-06	8.47469e-06
2	1	0	0	1	421.628	-0.588332	-0.588574	-0.0115005	2	-5.22106e-06	6.76889e-06
2	1	0	1	1	421.642	-0.574937	-0.575169	-0.00994692	2	-5.36371e-06	5.72116e-06
2	1	0	1	1	421.655	-0.561742	-0.561981	-0.00883884	2	-5.48716e-06	4.96725e-06
2	1	0	0	1	421.668	-0.548347	-0.548568	-0.00790572	2	-5.59892e-06	4.33682e-06
2	1	0	1	1	421.682	-0.534952	-0.535158	-0.00710337	2	-5.69911e-06	3.80142e-06
2	1	0	1	1	421.695	-0.521757	-0.521991	-0.00639644	2	-5.7879e-06	3.33889e-06
2	1	0	0	1	421.708	-0.508362	-0.508623	-0.00575404	2	-5.86901e-06	2.92664e-06
2	1	0	1	1	421.722	-0.494967	-0.495193	-0.00516115	2	-5.94185e-06	2.55577e-06
2	1	0	1	1	421.735	-0.481772	-0.482012	-0.00463605	2	-6.00625e-06	2.23463e-06
2	1	0	0	1	421.748	-0.468377	-0.468608	-0.00414105	2	-6.06479e-06	1.94053e-06
2	1	0	1	1	421.762	-0.454982	-0.455196	-0.0036836	2	-6.11695e-06	1.67676e-06
2	1	0	1	1	421.775	-0.441787	-0.442007	-0.00327429	2	-6.16263e-06	1.44726e-06
2	1	0	0	1	421.788	-0.428326	-0.428552	-0.00287364	2	-6.20361e-06	1.23151e-06
2	1	0	0	1	421.801	-0.415131	-0.415371	-0.00252399	2	-6.23903e-06	1.04839e-06
2	1	0	1	1	421.815	-0.401736	-0.401985	-0.00218599	2	-6.27036e-06	8.78735e-07
2	1	0	0	1	421.828	-0.388341	-0.388584	-0.00186934	2	-6.29731e-06	7.26396e-07
2	1	0	0	1	421.872	-0.344758	-0.344993	-0.000948463	2	-6.36709e-06	3.27213e-07
2	1	0	1	1	421.885	-0.331363	-0.331576	-0.000679816	2	-6.37784e-06	2.25411e-07
2	1	0	1	1	421.898	-0.318168	-0.31838	-0.000424307	2	-6.38497e-06	1.35091e-07
2	1	0	0	1	421.912	-0.304773	-0.304956	-0.000163195	2	-6.38876e-06	4.97672e-08
2	1	0	1	1	421.925	-0.291378	-0.291556	9.47037e-05	2	-6.38909e-06	2.76115e-08
2	1	0	1	1	421.938	-0.278183	-0.278366	0.000347722	2	-6.386e-06	9.67942e-08
2	1	0	0	1	421.952	-0.264788	-0.264986	0.000609761	2	-6.37945e-06	1.61578e-07
2	1	0	0	1	421.965	-0.251527	-0.251704	0.000877563	2	-6.36952e-06	2.20886e-07
2	1	0	1	1	421.978	-0.238132	-0.238323	0.00113283	2	-6.35591e-06	2.69981e-07
2	1	0	0	1	421.992	-0.224737	-0.224958	0.00137364	2	-6.33898e-06	3.09013e-07
2	1	0	0	1	422.005	-0.211542	-0.211728	0.00159438	2	-6.31923e-06	3.37575e-07
2	1	0	1	1	422.018	-0.198147	-0.198319	0.00178914	2	-6.29639e-06	3.54821e-07
2	1	0	0	1	422.032	-0.184752	-0.18495	0.00195234	2	-6.27116e-06	3.61087e-07
2	1	0	0	1	422.045	-0.171557	-0.171732	0.00210425	2	-6.24423e-06	3.61367e-07
2	1	0	1	1	422.058	-0.158162	-0.158329	0.00223701	2	-6.21501e-06	3.54183e-07
2	1	0	0	1	422.072	-0.144767	-0.144959	0.00235556	2	-6.1841e-06	3.4146e-07
2	1	0	0	1	422.085	-0.131572	-0.131736	0.00246227	2	-6.15217e-06	3.24368e-07
2	1	0	1	1	422.098	-0.118177	-0.118313	0.00255756	2	-6.11841e-06	3.02593e-07
2	1	0	0	1	422.112	-0.104783	-0.104934	0.00264079	2	-6.08344e-06	2.77107e-07
2	1	0	0	1	422.125	-0.0915875	-0.0917498	0.00271701	2	-6.04798e-06	2.49285e-07
2	1	0	1	1	422.138	-0.078126	-0.0783157	0.00279268	2	-6.01098e-06	2.18711e-07
2	1	0	1	1	422.152	-0.064931	-0.0651152	0.00284406	2	-5.97362e-06	1.85192e-07
2	1	0	0	1	422.165	-0.0515361	-0.0517376	0.00289353	2	-5.93505e-06	1.49704e-07
2	1	0	1	1	422.178	-0.0381412	-0.0383152	0.00293895	2	-5.89586e-06	1.12606e-07
2	1	0	1	1	422.192	-0.0249463	-0.025096	0.00296392	2	-5.85678e-06	7.43826e-08
2	1	0	0	1	422.205	-0.0115514	-0.0117373	0.00298141	2	-5.81682e-06	3.49936e-08
2	1	0	1	1	422.218	0.00184351	0.00168535	0.00299635	2	-5.77666e-06	5.04991e-09
2	1	0	1	1	422.232	0.0150385	0.0149143	0.00299957	2	-5.73697e-06	4.47364e-08
2	1	0	0	1	422.245	0.0284334	0.0282873	0.0029962	2	-5.69669e-06	8.47543e-08
2	1	0	1	1	422.258	0.0418283	0.0416819	0.0029928	2	-5.65645e-06	1.24746e-07
2	1	0	1	1	422.272	0.0550232	0.0549287	0.00299091	2	-5.61682e-06	1.64287e-07
2	1	0	0	1	422.285	0.0684181	0.0682877	0.00298399	2	-5.57666e-06	2.03769e-07
2	1	0	1	1	422.298	0.081813	0.0816878	0.0029853	2	-5.53656e-06	2.43862e-07
2	1	0	1	1	422.312	0.0950746	0.0949578	0.00299433	2	-5.49704e-06	2.84335e-07
2	0	0	0	1	422.322	0.0947858	0.0946659	0.00152365	2	-5.47117e-06	1.44238e-07
2	0	0	1	1	422.335	0.0813465	0.0812134	6.07259e-05	2	-5.4627e-06	4.93176e-09
2	0	0	1	1	422.348	0.0681515	0.0680127	-0.000516583	2	-5.46626e-06	3.51342e-08
2	0	0	0	1	422.362	0.0547567	0.0546276	-0.000882994	2	-5.47591e-06	4.82359e-08
2	0	0	1	1	422.375	0.0413618	0.0412087	-0.00116561	2	-5.48984e-06	4.80333e-08
2	0	0	1	1	422.388	0.0281668	0.0280112	-0.00139624	2	-5.50691e-06	3.91104e-08
2	0	0	0	1	422.402	0.0147719	0.0146296	-0.00160302	2	-5.52718e-06	2.34517e-08
2	0	0	1	1	422.415	0.00137703	0.00118579	-0.00180002	2	-5.55013e-06	2.13444e-09
2	0	0	1	1	422.428	-0.0118179	-0.0120211	-0.00197485	2	-5.57519e-06	2.374e-08
2	0	0	0	1	422.442	-0.0252128	-0.0254057	-0.0021425	2	-5.60293e-06	5.44317e-08
2	0	0	1	1	422.455	-0.0386077	-0.0388088	-0.00230895	2	-5.6329e-06	8.96076e-08
2	0	0	1	1	422.468	-0.0518027	-0.0520053	-0.00246635	2	-5.66456e-06	1.28263e-07
2	0	0	0	1	422.482	-0.0651976	-0.0653844	-0.0026197	2	-5.69879e-06	1.71288e-07
2	0	0	1	1	422.495	-0.0785925	-0.078794	-0.00277492	2	-5.73506e-06	2.18647e-07
2	0	0	1	1	422.508	-0.0918541	-0.0920365	-0.0029239	2	-5.77285e-06	2.69105e-07
2	0	0	0	1	422.522	-0.105249	-0.105438	-0.00307124	2	-5.81316e-06	3.23825e-07
2	0	0	0	1	422.535	-0.118444	-0.118632	-0.00322086	2	-5.85481e-06	3.82096e-07
2	0	0	1	1	422.548	-0.131839	-0.132042	-0.0033754	2	-5.89915e-06	4.45693e-07
2	0	0	0	1	422.562	-0.145234	-0.145441	-0.00352692	2	-5.94552e-06	5.1296e-07
2	0	0	0	1	422.575	-0.158429	-0.158624	-0.00367956	2	-5.99319e-06	5.83668e-07
2	0	0	1	1	422.588	-0.171824	-0.172035	-0.00383689	2	-6.0437e-06	6.6008e-07
2	0	0	0	1	422.602	-0.185219	-0.18545	-0.00399475	2	-6.09629e-06	7.40827e-07
2	0	0	0	1	422.615	-0.198413	-0.198615	-0.00415284	2	-6.1502e-06	8.24816e-07
2	0	0	1	1	422.628	-0.211808	-0.212042	-0.00433145	2	-6.20716e-06	9.1845e-07
2	0	0	0	1	422.642	-0.225203	-0.22544	-0.00451564	2	-6.26654e-06	1.01801e-06
2	0	0	0	1	422.655	-0.238398	-0.238616	-0.0047114	2	-6.32755e-06	1.12422e-06
2	0	0	1	1	422.668	-0.251793	-0.252013	-0.0049359	2	-6.39231e-06	1.24391e-06
2	0	0	1	1	422.682	-0.265055	-0.26528	-0.00518316	2	-6.45926e-06	1.37499e-06
2	0	0	0	1	422.695	-0.27845	-0.278643	-0.00544284	2	-6.53058e-06	1.51661e-06
2	0	0	1	1	422.708	-0.291845	-0.292037	-0.00573018	2	-6.60557e-06	1.67343e-06
2	0	0	1	1	422.722	-0.30504	-0.305265	-0.00601788	2	-6.68326e-06	1.83705e-06
2	0	0	0	1	422.735	-0.318434	-0.318692	-0.00631238	2	-6.76605e-06	2.0117e-06
2	0	0	1	1	422.748	-0.331829	-0.332064	-0.00659921	2	-6.85269e-06	2.19136e-06
2	0	0	1	1	422.762	-0.345024	-0.345282	-0.00687073	2	-6.94176e-06	2.37234e-06
2	0	0	0	1	422.775	-0.358419	-0.358674	-0.00712752	2	-7.0357e-06	2.55645e-06
2	0	0	1	1	422.788	-0.371814	-0.372061	-0.00736593	2	-7.13295e-06	2.74057e-06
2	0	0	1	1	422.802	-0.385009	-0.38529	-0.00759482	2	-7.23182e-06	2.92621e-06
2	0	0	0	1	422.815	-0.398404	-0.398677	-0.00781287	2	-7.33518e-06	3.11481e-06
2	0	0	1	1	422.828	-0.411799	-0.412049	-0.00803002	2	-7.44144e-06	3.30876e-06
2	0	0	1	1	422.842	-0.424994	-0.425275	-0.00825576	2	-7.54907e-06	3.51097e-06
2	0	0	0	1	422.855	-0.438455	-0.438707	-0.00850925	2	-7.66152e-06	3.73307e-06
2	0	0	0	1	422.868	-0.45165	-0.451865	-0.00875887	2	-7.77559e-06	3.95783e-06
2	0	0	1	1	422.882	-0.465045	-0.46528	-0.00904249	2	-7.895e-06	4.20729e-06
2	0	0	0	1	422.895	-0.47844	-0.478694	-0.0093557	2	-8.01839e-06	4.47852e-06
2	0	0	0	1	422.908	-0.491635	-0.491879	-0.00968833	2	-8.14419e-06	4.76549e-06
2	0	0	1	1	422.922	-0.50503	-0.505279	-0.0100539	2	-8.27659e-06	5.08001e-06
2	0	0	0	1	422.965	-0.548413	-0.548648	-0.0114273	2	-8.72804e-06	6.26957e-06
2	0	0	0	1	422.978	-0.561608	-0.561844	-0.0119151	2	-8.88232e-06	6.69446e-06
2	0	0	1	1	422.992	-0.575003	-0.575232	-0.012447	2	-9.04575e-06	7.15994e-06
2	0	0	0	1	423.005	-0.588398	-0.588626	-0.0130126	2	-9.21649e-06	7.65953e-06
2	0	0	1	1	423.017	-0.599827	-0.600024	-0.0135071	2	-9.36918e-06	8.10459e-06