File: TAP_Report/Data/Res_PB/100 uM RS 10mM PB_07_CV_C01_2.mpt
EC-Lab ASCII FILE
Nb header lines : 53

Cyclic Voltammetry

Run on channel : 1 (SN 0696)
User :
Electrode connection : standard
Ewe ctrl range : min = -10.00 V, max = 10.00 V
Ewe,I filtering : 50 kHz
Channel : Grounded
Acquisition started on : 05/17/2017 12:53:20
Saved on :
	File : 100 uM RS 10mM PB_07_CV_C01.mpr
	Directory : \\userfs\st659\w2k\EC-Lab\Data\ITO Characterisation 17-5-17\
	Host : 144.32.136.43
Device : SP-300 (SN 0182)
Address : USB
EC-Lab for windows v10.44 (software)
Internet server v10.44 (firmware)
Command interpretor v10.44 (firmware)
Electrode material :
Initial state :
Electrolyte :
Comments :
Cable : standard
Electrode surface area : 0.001 cm²
Characteristic mass : 0.001 g
Equivalent Weight : 0.000 g/eq.
Density : 0.000 g/cm3
Ei (V)              0.000
vs.                 Eoc
dE/dt               2500.000
dE/dt unit          mV/s
E1 (V)              0.100
vs.                 Ref
Step percent        50
N                   10
E range min (V)     -10.000
E range max (V)     10.000
I Range             Auto
I Range min         Unset
I Range max         Unset
I Range init        Unset
Bandwidth           8
E2 (V)              -0.600
vs.                 Ref
nc cycles           2
Reverse Scan        1
Ef (V)              0.000
vs.                 Eoc

mode	ox/red	error	control changes	counter inc.	time/s	control/V	Ewe/V	<I>/mA	cycle number	(Q-Qo)/C	P/W
2	1	0	1	1	425.978	-0.599494	-0.599737	-0.01809	2	-3.12317e-06	1.08493e-05
2	1	0	0	1	425.983	-0.586832	-0.587105	-0.0145444	2	-3.20514e-06	8.53911e-06
2	1	0	0	1	425.989	-0.571838	-0.572089	-0.0117271	2	-3.2832e-06	6.70894e-06
2	1	0	0	1	425.995	-0.556843	-0.557118	-0.009665	2	-3.34693e-06	5.38455e-06
2	1	0	0	1	426.001	-0.541849	-0.542095	-0.00802168	2	-3.39966e-06	4.34851e-06
2	1	0	0	1	426.007	-0.526855	-0.527106	-0.00666926	2	-3.4435e-06	3.51541e-06
2	1	0	0	1	426.013	-0.511861	-0.512119	-0.00552029	2	-3.47988e-06	2.82705e-06
2	1	0	0	1	426.019	-0.496866	-0.497115	-0.00451609	2	-3.50983e-06	2.24501e-06
2	1	0	0	1	426.025	-0.481872	-0.482118	-0.00363603	2	-3.53416e-06	1.753e-06
2	1	0	0	1	426.031	-0.466878	-0.46713	-0.00284649	2	-3.5535e-06	1.32968e-06
2	1	0	0	1	426.037	-0.451883	-0.452106	-0.00213812	2	-3.56834e-06	9.66658e-07
2	1	0	0	1	426.043	-0.436889	-0.437136	-0.00150053	2	-3.57918e-06	6.55935e-07
2	1	0	0	1	426.049	-0.421728	-0.422003	-0.000902388	2	-3.58625e-06	3.80811e-07
2	1	0	0	1	426.055	-0.406734	-0.406977	-0.000375103	2	-3.59001e-06	1.52658e-07
2	1	0	0	1	426.061	-0.39174	-0.391982	0.000111796	2	-3.59074e-06	4.38219e-08
2	1	0	0	1	426.067	-0.376745	-0.376986	0.000564814	2	-3.58865e-06	2.12927e-07
2	1	0	0	1	426.073	-0.361751	-0.361998	0.000988634	2	-3.58393e-06	3.57883e-07
2	1	0	0	1	426.079	-0.346757	-0.347012	0.00138802	2	-3.57676e-06	4.8166e-07
2	1	0	0	1	426.085	-0.331763	-0.331987	0.00178146	2	-3.5672e-06	5.91421e-07
2	1	0	0	1	426.091	-0.316768	-0.316994	0.00214921	2	-3.55536e-06	6.81288e-07
2	1	0	0	1	426.097	-0.301774	-0.301998	0.00251338	2	-3.54133e-06	7.59037e-07
2	1	0	0	1	426.103	-0.28678	-0.286982	0.00287622	2	-3.52511e-06	8.25423e-07
2	1	0	0	1	426.109	-0.271785	-0.272001	0.00323395	2	-3.50675e-06	8.79639e-07
2	1	0	0	1	426.115	-0.256791	-0.257016	0.00359673	2	-3.48622e-06	9.24418e-07
2	1	0	0	1	426.121	-0.241797	-0.242014	0.00397088	2	-3.46349e-06	9.61009e-07
2	1	0	0	1	426.127	-0.226803	-0.227057	0.00434535	2	-3.4385e-06	9.86642e-07
2	1	0	0	1	426.133	-0.211808	-0.21202	0.00472781	2	-3.41125e-06	1.00239e-06
2	1	0	0	1	426.139	-0.196814	-0.197001	0.0050869	2	-3.38175e-06	1.00212e-06
2	1	0	0	1	426.145	-0.18182	-0.182035	0.00540126	2	-3.35024e-06	9.83216e-07
2	1	0	0	1	426.151	-0.166826	-0.167048	0.00568089	2	-3.31693e-06	9.48983e-07
2	1	0	0	1	426.157	-0.151831	-0.152042	0.00591884	2	-3.28209e-06	8.99914e-07
2	1	0	0	1	426.163	-0.136837	-0.137056	0.0061253	2	-3.24593e-06	8.39511e-07
2	1	0	0	1	426.169	-0.121843	-0.122054	0.00630395	2	-3.20861e-06	7.69421e-07
2	1	0	0	1	426.175	-0.106848	-0.107043	0.00644782	2	-3.17031e-06	6.90193e-07
2	1	0	0	1	426.181	-0.0918541	-0.0920437	0.00657862	2	-3.13122e-06	6.0552e-07
2	1	0	0	1	426.187	-0.0768598	-0.0770834	0.00667327	2	-3.09145e-06	5.14398e-07
2	1	0	0	1	426.193	-0.0618655	-0.0620922	0.00675052	2	-3.05115e-06	4.19155e-07
2	1	0	0	1	426.199	-0.0468712	-0.047083	0.00681076	2	-3.01045e-06	3.20671e-07
2	1	0	0	1	426.205	-0.031877	-0.0320844	0.00685075	2	-2.96947e-06	2.19802e-07
2	1	0	0	1	426.211	-0.0168827	-0.017099	0.00688505	2	-2.92824e-06	1.17727e-07
2	1	0	0	1	426.217	-0.0018884	-0.00212179	0.00690774	2	-2.88685e-06	1.46568e-08
2	1	0	0	1	426.223	0.0132725	0.0131115	0.00695544	2	-2.84523e-06	9.11959e-08
2	1	0	0	1	426.229	0.0282668	0.0280787	0.00693372	2	-2.80355e-06	1.9469e-07
2	1	0	0	1	426.235	0.043261	0.0430766	0.00692559	2	-2.76195e-06	2.98331e-07
2	1	0	0	1	426.241	0.0582553	0.0581085	0.00691359	2	-2.72044e-06	4.01739e-07
2	1	0	0	1	426.247	0.0732496	0.0731116	0.00689145	2	-2.67903e-06	5.03845e-07
2	1	0	0	1	426.253	0.0882439	0.0880639	0.00685704	2	-2.63779e-06	6.03858e-07
2	1	0	0	1	426.258	0.0999061	0.0997535	0.00681691	2	-2.60561e-06	6.80011e-07
2	0	0	1	1	426.259	0.0972404	0.097113	0.0056611	2	-2.5966e-06	5.49766e-07
2	0	0	1	1	426.265	0.0822462	0.0821219	0.00213285	2	-2.57473e-06	1.75154e-07
2	0	0	1	1	426.271	0.0672519	0.0671228	0.00023823	2	-2.56827e-06	1.59907e-08
2	0	0	1	1	426.277	0.0522576	0.0521334	-0.000935676	2	-2.57069e-06	4.87799e-08
2	0	0	1	1	426.283	0.0372633	0.037143	-0.00174164	2	-2.57892e-06	6.46897e-08
2	0	0	1	1	426.289	0.0222691	0.0221262	-0.00234624	2	-2.59132e-06	5.19134e-08
2	0	0	1	1	426.295	0.00723775	0.00708459	-0.0028389	2	-2.60695e-06	2.01124e-08
2	0	0	1	1	426.301	-0.00788611	-0.00804247	-0.00325776	2	-2.62536e-06	2.62005e-08
2	0	0	1	1	426.307	-0.0228804	-0.023029	-0.00360374	2	-2.64599e-06	8.29904e-08
2	0	0	1	1	426.313	-0.0378747	-0.0380261	-0.00392608	2	-2.66863e-06	1.49294e-07
2	0	0	1	1	426.319	-0.052869	-0.053065	-0.0042351	2	-2.69316e-06	2.24736e-07
2	0	0	1	1	426.325	-0.0678632	-0.0680581	-0.00451111	2	-2.71943e-06	3.07017e-07
2	0	0	1	1	426.331	-0.0828575	-0.0830439	-0.00478745	2	-2.74736e-06	3.97569e-07
2	0	0	1	1	426.337	-0.0978518	-0.0980052	-0.00505536	2	-2.7769e-06	4.95452e-07
2	0	0	1	1	426.343	-0.112846	-0.112995	-0.00531086	2	-2.80801e-06	6.00101e-07
2	0	0	1	1	426.349	-0.12784	-0.128015	-0.00557483	2	-2.84068e-06	7.13664e-07
2	0	0	1	1	426.355	-0.142835	-0.142997	-0.00583785	2	-2.87495e-06	8.34795e-07
2	0	0	1	1	426.361	-0.157829	-0.157997	-0.00610048	2	-2.91078e-06	9.63858e-07
2	0	0	1	1	426.367	-0.172823	-0.173026	-0.00636624	2	-2.94821e-06	1.10153e-06
2	0	0	1	1	426.373	-0.187817	-0.188024	-0.00663186	2	-2.98725e-06	1.24695e-06
2	0	0	1	1	426.379	-0.202812	-0.203003	-0.00690174	2	-3.02786e-06	1.40107e-06
2	0	0	1	1	426.385	-0.217806	-0.218007	-0.00718792	2	-3.07016e-06	1.56702e-06
2	0	0	1	1	426.391	-0.2328	-0.233	-0.00747924	2	-3.1142e-06	1.74267e-06
2	0	0	1	1	426.397	-0.247795	-0.248012	-0.0077942	2	-3.16003e-06	1.93305e-06
2	0	0	1	1	426.403	-0.262789	-0.262967	-0.00812773	2	-3.20781e-06	2.13733e-06
2	0	0	1	1	426.409	-0.277783	-0.27795	-0.00849076	2	-3.25769e-06	2.36001e-06
2	0	0	1	1	426.415	-0.292777	-0.292947	-0.00888123	2	-3.30984e-06	2.60173e-06
2	0	0	1	1	426.421	-0.307772	-0.307966	-0.0092957	2	-3.36441e-06	2.86276e-06
2	0	0	1	1	426.427	-0.322766	-0.322952	-0.00972743	2	-3.42153e-06	3.14149e-06
2	0	0	1	1	426.433	-0.33776	-0.337966	-0.0101829	2	-3.48132e-06	3.44147e-06
2	0	0	1	1	426.439	-0.352755	-0.352998	-0.0106287	2	-3.54381e-06	3.75192e-06
2	0	0	1	1	426.445	-0.367749	-0.367953	-0.0110549	2	-3.60892e-06	4.0677e-06
2	0	0	1	1	426.451	-0.382743	-0.382989	-0.011469	2	-3.67654e-06	4.39251e-06
2	0	0	1	1	426.457	-0.397737	-0.397991	-0.0118598	2	-3.74659e-06	4.7201e-06
2	0	0	1	1	426.463	-0.412732	-0.412957	-0.0122264	2	-3.81889e-06	5.04896e-06
2	0	0	1	1	426.469	-0.427726	-0.427937	-0.0125395	2	-3.89324e-06	5.36613e-06
2	0	0	1	1	426.475	-0.442887	-0.443094	-0.012876	2	-3.9696e-06	5.70529e-06
2	0	0	1	1	426.481	-0.457881	-0.458093	-0.0131807	2	-4.04779e-06	6.03801e-06
2	0	0	1	1	426.487	-0.472876	-0.473103	-0.0134948	2	-4.12782e-06	6.38444e-06
2	0	0	1	1	426.493	-0.48787	-0.488095	-0.0138161	2	-4.20976e-06	6.74355e-06
2	0	0	1	1	426.499	-0.502864	-0.503101	-0.014148	2	-4.29363e-06	7.11786e-06
2	0	0	1	1	426.505	-0.517858	-0.518076	-0.01453	2	-4.37969e-06	7.52764e-06
2	0	0	1	1	426.511	-0.532853	-0.533073	-0.0149252	2	-4.46809e-06	7.95622e-06
2	0	0	1	1	426.517	-0.547847	-0.548063	-0.0153958	2	-4.55908e-06	8.43785e-06
2	0	0	1	1	426.523	-0.562841	-0.563064	-0.0158735	2	-4.65294e-06	8.93782e-06
2	0	0	1	1	426.529	-0.577835	-0.578064	-0.0164057	2	-4.74985e-06	9.48352e-06
2	0	0	1	1	426.535	-0.59283	-0.593038	-0.0169885	2	-4.85004e-06	1.00748e-05
2	0	0	0	1	426.538	-0.60016	-0.600344	-0.0173146	2	-4.89974e-06	1.03947e-05