File: TAP_Report/Data/Res_PB/100 uM RS 10mM PB_04_CV_C01_2.mpt
EC-Lab ASCII FILE
Nb header lines : 53

Cyclic Voltammetry

Run on channel : 1 (SN 0696)
User :
Electrode connection : standard
Ewe ctrl range : min = -10.00 V, max = 10.00 V
Ewe,I filtering : 50 kHz
Channel : Grounded
Acquisition started on : 05/17/2017 12:53:20
Saved on :
	File : 100 uM RS 10mM PB_04_CV_C01.mpr
	Directory : \\userfs\st659\w2k\EC-Lab\Data\ITO Characterisation 17-5-17\
	Host : 144.32.136.43
Device : SP-300 (SN 0182)
Address : USB
EC-Lab for windows v10.44 (software)
Internet server v10.44 (firmware)
Command interpretor v10.44 (firmware)
Electrode material :
Initial state :
Electrolyte :
Comments :
Cable : standard
Electrode surface area : 0.001 cm²
Characteristic mass : 0.001 g
Equivalent Weight : 0.000 g/eq.
Density : 0.000 g/cm3
Ei (V)              0.000
vs.                 Eoc
dE/dt               250.000
dE/dt unit          mV/s
E1 (V)              0.100
vs.                 Ref
Step percent        50
N                   10
E range min (V)     -10.000
E range max (V)     10.000
I Range             Auto
I Range min         Unset
I Range max         Unset
I Range init        Unset
Bandwidth           8
E2 (V)              -0.600
vs.                 Ref
nc cycles           2
Reverse Scan        1
Ef (V)              0.000
vs.                 Eoc

mode	ox/red	error	control changes	counter inc.	time/s	control/V	Ewe/V	<I>/mA	cycle number	(Q-Qo)/C	P/W
2	1	0	1	1	395.23	-0.60016	-0.600344	-0.0116608	2	-1.51238e-05	7.00047e-06
2	1	0	0	1	395.278	-0.588332	-0.588567	-0.0101323	2	-1.56299e-05	5.96352e-06
2	1	0	1	1	395.331	-0.574987	-0.57522	-0.00921488	2	-1.61443e-05	5.30058e-06
2	1	0	1	1	395.384	-0.561681	-0.561891	-0.00844051	2	-1.66123e-05	4.74265e-06
2	1	0	0	1	395.438	-0.54833	-0.548513	-0.00775676	2	-1.70434e-05	4.25468e-06
2	1	0	0	1	395.491	-0.535035	-0.535233	-0.00715231	2	-1.74385e-05	3.82815e-06
2	1	0	1	1	395.544	-0.52169	-0.521905	-0.00660121	2	-1.78044e-05	3.44521e-06
2	1	0	1	1	395.598	-0.508379	-0.5086	-0.00610069	2	-1.81409e-05	3.10281e-06
2	1	0	0	1	395.651	-0.495034	-0.49525	-0.00563831	2	-1.8453e-05	2.79237e-06
2	1	0	1	1	395.704	-0.481689	-0.481915	-0.00521496	2	-1.87415e-05	2.51317e-06
2	1	0	1	1	395.758	-0.468377	-0.468588	-0.00482632	2	-1.90073e-05	2.26156e-06
2	1	0	0	1	395.826	-0.451208	-0.451386	-0.00437541	2	-1.93211e-05	1.975e-06
2	1	0	0	1	395.895	-0.43404	-0.434256	-0.00396565	2	-1.96085e-05	1.72211e-06
2	1	0	0	1	395.948	-0.420729	-0.420953	-0.00367083	2	-1.98105e-05	1.54525e-06
2	1	0	1	1	396.002	-0.407384	-0.407621	-0.00339344	2	-1.9998e-05	1.38324e-06
2	1	0	1	1	396.055	-0.394089	-0.39433	-0.00313452	2	-2.01706e-05	1.23603e-06
2	1	0	0	1	396.108	-0.380727	-0.380948	-0.00288663	2	-2.03303e-05	1.09966e-06
2	1	0	0	1	396.161	-0.367432	-0.367624	-0.00265829	2	-2.04768e-05	9.77249e-07
2	1	0	1	1	396.215	-0.354087	-0.354324	-0.00243943	2	-2.06119e-05	8.64348e-07
2	1	0	1	1	396.268	-0.340776	-0.340998	-0.0022247	2	-2.07349e-05	7.5862e-07
2	1	0	0	1	396.321	-0.327431	-0.327607	-0.00201681	2	-2.08471e-05	6.60722e-07
2	1	0	1	1	396.375	-0.314086	-0.314261	-0.00181704	2	-2.09485e-05	5.71024e-07
2	1	0	1	1	396.428	-0.300791	-0.300965	-0.00161938	2	-2.10389e-05	4.87376e-07
2	1	0	0	1	396.481	-0.28743	-0.287587	-0.00142339	2	-2.1119e-05	4.09347e-07
2	1	0	0	1	396.535	-0.274135	-0.274316	-0.00123335	2	-2.11886e-05	3.38327e-07
2	1	0	1	1	396.588	-0.26079	-0.260942	-0.00104451	2	-2.12483e-05	2.72555e-07
2	1	0	1	1	396.641	-0.247478	-0.247659	-0.000866152	2	-2.12981e-05	2.1451e-07
2	1	0	0	1	396.695	-0.234133	-0.234309	-0.000700585	2	-2.13388e-05	1.64153e-07
2	1	0	1	1	396.748	-0.220788	-0.220965	-0.000553905	2	-2.13713e-05	1.22393e-07
2	1	0	1	1	396.801	-0.207477	-0.207654	-0.000425102	2	-2.13963e-05	8.82743e-08
2	1	0	1	1	396.885	-0.186485	-0.186632	-0.00025014	2	-2.14236e-05	4.66842e-08
2	1	0	0	1	396.939	-0.17314	-0.173291	-0.000162716	2	-2.14343e-05	2.81972e-08
2	1	0	0	1	396.992	-0.159828	-0.15997	-8.40087e-05	2	-2.14404e-05	1.34389e-08
2	1	0	1	1	397.045	-0.146483	-0.146617	-1.68523e-05	2	-2.14428e-05	2.47083e-09
2	1	0	1	1	397.098	-0.133188	-0.133289	4.44314e-05	2	-2.14417e-05	5.92224e-09
2	1	0	0	1	397.152	-0.119827	-0.119934	9.76445e-05	2	-2.14376e-05	1.17109e-08
2	1	0	0	1	397.205	-0.106532	-0.106645	0.000139727	2	-2.1431e-05	1.49012e-08
2	1	0	1	1	397.258	-0.0931869	-0.0933009	0.0001751	2	-2.14223e-05	1.6337e-08
2	1	0	0	1	397.312	-0.079853	-0.0799725	0.0002034	2	-2.1412e-05	1.62664e-08
2	1	0	0	1	397.365	-0.0665304	-0.0666482	0.000224287	2	-2.14003e-05	1.49483e-08
2	1	0	1	1	397.418	-0.0531855	-0.053316	0.000243054	2	-2.13875e-05	1.29587e-08
2	1	0	1	1	397.472	-0.0398906	-0.0399928	0.00026273	2	-2.13738e-05	1.05073e-08
2	1	0	0	1	397.525	-0.026529	-0.0266314	0.00027824	2	-2.13591e-05	7.4099e-09
2	1	0	0	1	397.578	-0.0132341	-0.0133494	0.000294033	2	-2.13436e-05	3.92515e-09
2	1	0	1	1	397.632	0.000122924	-1.27587e-05	0.000312594	2	-2.13271e-05	3.9883e-12
2	1	0	1	1	397.685	0.0134224	0.0133466	0.000334098	2	-2.13096e-05	4.45907e-09
2	1	0	0	1	397.738	0.0267673	0.0266857	0.000353568	2	-2.1291e-05	9.43521e-09
2	1	0	1	1	397.792	0.0401122	0.0400273	0.00037594	2	-2.12712e-05	1.50479e-08
2	1	0	1	1	397.845	0.0534238	0.0533707	0.000401877	2	-2.12502e-05	2.14485e-08
2	1	0	0	1	397.898	0.0667687	0.0666992	0.000425998	2	-2.12278e-05	2.84137e-08
2	1	0	0	1	397.951	0.0800637	0.0800065	0.000455905	2	-2.1204e-05	3.64754e-08
2	1	0	1	1	398.005	0.0934141	0.0933524	0.00048594	2	-2.11786e-05	4.53636e-08
2	0	0	0	1	398.039	0.0980568	0.0979218	6.5425e-05	2	-2.11646e-05	6.40653e-09
2	0	0	1	1	398.122	0.0770981	0.0769731	-0.000565226	2	-2.11951e-05	4.35072e-08
2	0	0	0	1	398.176	0.0637532	0.0636479	-0.000724839	2	-2.12307e-05	4.61344e-08
2	0	0	1	1	398.229	0.050425	0.0503035	-0.000864671	2	-2.12741e-05	4.3496e-08
2	0	0	1	1	398.282	0.0370967	0.036963	-0.000985455	2	-2.13244e-05	3.64254e-08
2	0	0	0	1	398.336	0.0237518	0.0236014	-0.0011012	2	-2.13812e-05	2.59898e-08
2	0	0	0	1	398.389	0.0104569	0.0103223	-0.00120774	2	-2.14436e-05	1.24666e-08
2	0	0	1	1	398.442	-0.00290467	-0.00308817	-0.00131054	2	-2.15118e-05	4.04719e-09
2	0	0	1	1	398.496	-0.0161996	-0.0163727	-0.00140663	2	-2.15851e-05	2.30303e-08
2	0	0	0	1	398.549	-0.0295445	-0.029722	-0.0015026	2	-2.16637e-05	4.46603e-08
2	0	0	0	1	398.602	-0.0428561	-0.0430458	-0.00159562	2	-2.17471e-05	6.86848e-08
2	0	0	1	1	398.656	-0.056201	-0.0564049	-0.00168276	2	-2.18356e-05	9.49158e-08
2	0	0	0	1	398.709	-0.0695459	-0.0697214	-0.00176884	2	-2.19287e-05	1.23326e-07
2	0	0	0	1	398.762	-0.0828575	-0.0830303	-0.00185704	2	-2.20262e-05	1.5419e-07
2	0	0	1	1	398.816	-0.0962024	-0.0963475	-0.00194211	2	-2.21285e-05	1.87117e-07
2	0	0	1	1	398.869	-0.109497	-0.109663	-0.00202502	2	-2.2235e-05	2.22069e-07
2	0	0	0	1	398.922	-0.122842	-0.122987	-0.00210953	2	-2.23464e-05	2.59444e-07
2	0	0	0	1	398.975	-0.136154	-0.136336	-0.0021963	2	-2.2462e-05	2.99436e-07
2	0	0	1	1	399.029	-0.149499	-0.149669	-0.00228001	2	-2.25826e-05	3.41247e-07
2	0	0	0	1	399.082	-0.162844	-0.163028	-0.00236933	2	-2.27077e-05	3.86268e-07
2	0	0	0	1	399.135	-0.176155	-0.176331	-0.00245526	2	-2.2837e-05	4.3294e-07
2	0	0	1	1	399.189	-0.1895	-0.189694	-0.00254888	2	-2.29716e-05	4.83507e-07
2	0	0	1	1	399.242	-0.202795	-0.202975	-0.00264809	2	-2.31108e-05	5.37497e-07
2	0	0	0	1	399.295	-0.216157	-0.216354	-0.00275978	2	-2.32561e-05	5.9709e-07
2	0	0	0	1	399.349	-0.229452	-0.229655	-0.0028844	2	-2.34071e-05	6.62417e-07
2	0	0	1	1	399.402	-0.242797	-0.242969	-0.00303168	2	-2.3566e-05	7.36604e-07
2	0	0	0	1	399.455	-0.25613	-0.256312	-0.00319907	2	-2.37329e-05	8.19961e-07
2	0	0	0	1	399.509	-0.269453	-0.269633	-0.00338536	2	-2.39094e-05	9.12805e-07
2	0	0	1	1	399.562	-0.282798	-0.282941	-0.0035803	2	-2.40964e-05	1.01301e-06
2	0	0	1	1	399.615	-0.296093	-0.296271	-0.00378628	2	-2.42933e-05	1.12176e-06
2	0	0	0	1	399.669	-0.309454	-0.309645	-0.00398997	2	-2.4502e-05	1.23548e-06
2	0	0	0	1	399.722	-0.322749	-0.322939	-0.00418783	2	-2.47205e-05	1.35241e-06
2	0	0	1	1	399.775	-0.336094	-0.336288	-0.00438765	2	-2.49505e-05	1.47551e-06
2	0	0	1	1	399.828	-0.349406	-0.349613	-0.00458632	2	-2.51902e-05	1.60344e-06
2	0	0	0	1	399.882	-0.362751	-0.362953	-0.00478378	2	-2.54415e-05	1.73629e-06
2	0	0	1	1	399.935	-0.376096	-0.376318	-0.00498886	2	-2.57034e-05	1.8774e-06
2	0	0	1	1	399.988	-0.389407	-0.389659	-0.0052011	2	-2.59754e-05	2.02665e-06
2	0	0	0	1	400.042	-0.402752	-0.402987	-0.00542281	2	-2.626e-05	2.18532e-06
2	0	0	0	1	400.095	-0.416047	-0.416273	-0.00566016	2	-2.65557e-05	2.35617e-06
2	0	0	1	1	400.148	-0.429392	-0.429614	-0.00591451	2	-2.68657e-05	2.54096e-06
2	0	0	1	1	400.202	-0.442704	-0.442918	-0.0061855	2	-2.71886e-05	2.73967e-06
2	0	0	0	1	400.255	-0.456049	-0.456243	-0.00647807	2	-2.75276e-05	2.95558e-06
2	0	0	1	1	400.308	-0.469393	-0.469637	-0.00679316	2	-2.78828e-05	3.19032e-06
2	0	0	1	1	400.362	-0.482705	-0.482938	-0.00712608	2	-2.82541e-05	3.44146e-06
2	0	0	0	1	400.415	-0.49605	-0.496259	-0.00747862	2	-2.8645e-05	3.71134e-06
2	0	0	0	1	400.468	-0.509345	-0.509571	-0.00785617	2	-2.90538e-05	4.00328e-06
2	0	0	1	1	400.522	-0.522706	-0.522955	-0.00825648	2	-2.94849e-05	4.31777e-06
2	0	0	1	1	400.575	-0.536001	-0.536226	-0.00867176	2	-2.99362e-05	4.65002e-06
2	0	0	0	1	400.628	-0.549346	-0.549564	-0.009114	2	-3.0412e-05	5.00872e-06
2	0	0	1	1	400.681	-0.56268	-0.562923	-0.00958573	2	-3.09113e-05	5.39603e-06
2	0	0	1	1	400.735	-0.576003	-0.576247	-0.010065	2	-3.1436e-05	5.79991e-06
2	0	0	1	1	400.819	-0.596995	-0.597199	-0.0108552	2	-3.23115e-05	6.4827e-06
2	0	0	0	1	400.83	-0.599827	-0.600043	-0.0109702	2	-3.2436e-05	6.58257e-06