File: TAP_Report/Data/Res_PB/100 uM RS 10mM PB_08_CV_C01_2.mpt
EC-Lab ASCII FILE
Nb header lines : 53

Cyclic Voltammetry

Run on channel : 1 (SN 0696)
User :
Electrode connection : standard
Ewe ctrl range : min = -10.00 V, max = 10.00 V
Ewe,I filtering : 50 kHz
Channel : Grounded
Acquisition started on : 05/17/2017 12:53:20
Saved on :
	File : 100 uM RS 10mM PB_08_CV_C01.mpr
	Directory : \\userfs\st659\w2k\EC-Lab\Data\ITO Characterisation 17-5-17\
	Host : 144.32.136.43
Device : SP-300 (SN 0182)
Address : USB
EC-Lab for windows v10.44 (software)
Internet server v10.44 (firmware)
Command interpretor v10.44 (firmware)
Electrode material :
Initial state :
Electrolyte :
Comments :
Cable : standard
Electrode surface area : 0.001 cm²
Characteristic mass : 0.001 g
Equivalent Weight : 0.000 g/eq.
Density : 0.000 g/cm3
Ei (V)              0.000
vs.                 Eoc
dE/dt               5000.000
dE/dt unit          mV/s
E1 (V)              0.100
vs.                 Ref
Step percent        50
N                   10
E range min (V)     -10.000
E range max (V)     10.000
I Range             Auto
I Range min         Unset
I Range max         Unset
I Range init        Unset
Bandwidth           8
E2 (V)              -0.600
vs.                 Ref
nc cycles           2
Reverse Scan        1
Ef (V)              0.000
vs.                 Eoc

mode	ox/red	error	control changes	counter inc.	time/s	control/V	Ewe/V	<I>/mA	cycle number	(Q-Qo)/C	P/W
2	1	0	0	1	427.825	-0.599494	-0.599783	-0.0244846	2	-2.25301e-06	1.46854e-05
2	1	0	1	1	427.828	-0.584	-0.58429	-0.0196553	2	-2.32e-06	1.14844e-05
2	1	0	1	1	427.832	-0.564007	-0.564298	-0.0149621	2	-2.38842e-06	8.44308e-06
2	1	0	1	1	427.836	-0.544015	-0.54427	-0.0113036	2	-2.44035e-06	6.15221e-06
2	1	0	1	1	427.84	-0.524023	-0.52429	-0.0083561	2	-2.47922e-06	4.38102e-06
2	1	0	1	1	427.844	-0.50403	-0.504314	-0.00590822	2	-2.50738e-06	2.97959e-06
2	1	0	1	1	427.848	-0.484038	-0.484311	-0.00384876	2	-2.52659e-06	1.864e-06
2	1	0	1	1	427.852	-0.464046	-0.464283	-0.00209373	2	-2.53823e-06	9.72084e-07
2	1	0	1	1	427.856	-0.444053	-0.444313	-0.000590319	2	-2.54339e-06	2.62286e-07
2	1	0	1	1	427.86	-0.424061	-0.424318	0.000719577	2	-2.54294e-06	3.0533e-07
2	1	0	1	1	427.864	-0.404068	-0.404326	0.00185981	2	-2.53763e-06	7.51972e-07
2	1	0	1	1	427.868	-0.384076	-0.384347	0.00287048	2	-2.52804e-06	1.10326e-06
2	1	0	1	1	427.872	-0.364084	-0.364339	0.00377186	2	-2.51464e-06	1.37423e-06
2	1	0	1	1	427.876	-0.344091	-0.344359	0.00457513	2	-2.49785e-06	1.57549e-06
2	1	0	1	1	427.88	-0.324099	-0.324308	0.00532191	2	-2.47796e-06	1.72594e-06
2	1	0	1	1	427.884	-0.304107	-0.304335	0.00600092	2	-2.45524e-06	1.82629e-06
2	1	0	1	1	427.888	-0.284114	-0.284319	0.00665113	2	-2.42986e-06	1.89104e-06
2	1	0	1	1	427.892	-0.264122	-0.264354	0.00726624	2	-2.40197e-06	1.92086e-06
2	1	0	1	1	427.896	-0.244129	-0.244365	0.0078704	2	-2.37164e-06	1.92325e-06
2	1	0	1	1	427.9	-0.224137	-0.224385	0.00847953	2	-2.33887e-06	1.90268e-06
2	1	0	1	1	427.904	-0.204145	-0.204371	0.00910156	2	-2.30365e-06	1.86009e-06
2	1	0	1	1	427.908	-0.184152	-0.184401	0.00972071	2	-2.26593e-06	1.79251e-06
2	1	0	1	1	427.912	-0.16416	-0.164393	0.0103213	2	-2.22578e-06	1.69676e-06
2	1	0	1	1	427.916	-0.144167	-0.144394	0.0108603	2	-2.18333e-06	1.56816e-06
2	1	0	1	1	427.92	-0.124175	-0.124379	0.0113322	2	-2.13888e-06	1.40948e-06
2	1	0	1	1	427.924	-0.104183	-0.104396	0.0117169	2	-2.09272e-06	1.22319e-06
2	1	0	1	1	427.928	-0.0841903	-0.0844046	0.0120253	2	-2.04519e-06	1.01499e-06
2	1	0	1	1	427.932	-0.064198	-0.064429	0.0122983	2	-1.9965e-06	7.92367e-07
2	1	0	1	1	427.936	-0.0442056	-0.0444347	0.0125058	2	-1.94686e-06	5.5569e-07
2	1	0	1	1	427.94	-0.0242132	-0.0244248	0.0126485	2	-1.89651e-06	3.08938e-07
2	1	0	1	1	427.944	-0.00422084	-0.00443711	0.0127382	2	-1.84571e-06	5.65206e-08
2	1	0	1	1	427.948	0.0161047	0.0159467	0.0128304	2	-1.79454e-06	2.04603e-07
2	1	0	1	1	427.952	0.0360971	0.0359189	0.0128137	2	-1.74325e-06	4.60253e-07
2	1	0	1	1	427.956	0.0560895	0.0559467	0.0127895	2	-1.69205e-06	7.15527e-07
2	1	0	1	1	427.96	0.0760818	0.0759119	0.0127229	2	-1.64102e-06	9.65822e-07
2	1	0	1	1	427.964	0.0950746	0.094893	0.0126647	2	-1.59279e-06	1.20179e-06
2	1	0	0	1	427.965	0.100573	0.10041	0.0126485	2	-1.57887e-06	1.27003e-06
2	0	0	0	1	427.966	0.094075	0.0939886	0.0102658	2	-1.56496e-06	9.64866e-07
2	0	0	0	1	427.97	0.0740826	0.0739965	0.00491292	2	-1.53581e-06	3.63539e-07
2	0	0	0	1	427.974	0.0540902	0.054011	0.00143229	2	-1.52383e-06	7.73592e-08
2	0	0	0	1	427.978	0.0340979	0.0339957	-0.000984792	2	-1.52339e-06	3.34787e-08
2	0	0	0	1	427.982	0.0141055	0.0140047	-0.0027372	2	-1.53115e-06	3.83336e-08
2	0	0	0	1	427.986	-0.00622008	-0.00637449	-0.00412454	2	-1.54515e-06	2.62918e-08
2	0	0	0	1	427.99	-0.0262125	-0.0263495	-0.00515364	2	-1.56387e-06	1.35796e-07
2	0	0	0	1	427.994	-0.0462048	-0.0463577	-0.00601141	2	-1.58632e-06	2.78675e-07
2	0	0	0	1	427.998	-0.0661972	-0.0663416	-0.00673986	2	-1.61193e-06	4.47133e-07
2	0	0	0	1	428.002	-0.0861896	-0.086329	-0.00739116	2	-1.64029e-06	6.38072e-07
2	0	0	0	1	428.006	-0.106182	-0.106329	-0.00798189	2	-1.67111e-06	8.48709e-07
2	0	0	0	1	428.01	-0.126174	-0.126333	-0.0085386	2	-1.70421e-06	1.07871e-06
2	0	0	0	1	428.014	-0.146167	-0.146331	-0.00906871	2	-1.73948e-06	1.32703e-06
2	0	0	0	1	428.018	-0.166159	-0.166306	-0.00958232	2	-1.77683e-06	1.59359e-06
2	0	0	0	1	428.022	-0.186151	-0.186308	-0.0100967	2	-1.81624e-06	1.88109e-06
2	0	0	0	1	428.026	-0.206144	-0.206284	-0.0106029	2	-1.85768e-06	2.1872e-06
2	0	0	0	1	428.03	-0.226136	-0.22632	-0.0111258	2	-1.90119e-06	2.51798e-06
2	0	0	0	1	428.034	-0.246129	-0.246309	-0.0116605	2	-1.94681e-06	2.87208e-06
2	0	0	0	1	428.038	-0.266121	-0.26627	-0.0122129	2	-1.9946e-06	3.25192e-06
2	0	0	0	1	428.042	-0.286113	-0.286252	-0.0127997	2	-2.04467e-06	3.66395e-06
2	0	0	0	1	428.046	-0.306106	-0.306283	-0.0134387	2	-2.09721e-06	4.11606e-06
2	0	0	0	1	428.05	-0.326098	-0.326255	-0.0141149	2	-2.15237e-06	4.60506e-06
2	0	0	0	1	428.054	-0.346091	-0.346282	-0.0148351	2	-2.21034e-06	5.13714e-06
2	0	0	0	1	428.058	-0.366083	-0.36624	-0.0155747	2	-2.27123e-06	5.70408e-06
2	0	0	0	1	428.062	-0.386075	-0.386284	-0.0163368	2	-2.33513e-06	6.31066e-06
2	0	0	0	1	428.066	-0.406068	-0.406289	-0.0170717	2	-2.40201e-06	6.93605e-06
2	0	0	0	1	428.07	-0.42606	-0.42626	-0.0177856	2	-2.47181e-06	7.5813e-06
2	0	0	0	1	428.074	-0.446052	-0.446233	-0.0184523	2	-2.54436e-06	8.234e-06
2	0	0	0	1	428.078	-0.466045	-0.466234	-0.0190889	2	-2.6195e-06	8.89987e-06
2	0	0	0	1	428.082	-0.486037	-0.486242	-0.0196586	2	-2.69706e-06	9.55884e-06
2	0	0	0	1	428.086	-0.506029	-0.506216	-0.0202197	2	-2.77688e-06	1.02355e-05
2	0	0	0	1	428.09	-0.526022	-0.526219	-0.0207623	2	-2.85892e-06	1.09255e-05
2	0	0	0	1	428.094	-0.546014	-0.546193	-0.0213098	2	-2.9431e-06	1.16393e-05
2	0	0	0	1	428.098	-0.566007	-0.566216	-0.0218994	2	-3.02957e-06	1.23998e-05
2	0	0	0	1	428.102	-0.585999	-0.586185	-0.0225447	2	-3.1185e-06	1.32154e-05
2	0	0	0	1	428.105	-0.599494	-0.599673	-0.0230043	2	-3.17996e-06	1.37951e-05
2	0	0	1	1	428.105	-0.600493	-0.600645	-0.0230349	2	-3.18457e-06	1.38358e-05