File: TAP_Report/Data/Res_PB/100 uM RS 10mM PB_05_CV_C01_2.mpt
EC-Lab ASCII FILE
Nb header lines : 53

Cyclic Voltammetry

Run on channel : 1 (SN 0696)
User :
Electrode connection : standard
Ewe ctrl range : min = -10.00 V, max = 10.00 V
Ewe,I filtering : 50 kHz
Channel : Grounded
Acquisition started on : 05/17/2017 12:53:20
Saved on :
	File : 100 uM RS 10mM PB_05_CV_C01.mpr
	Directory : \\userfs\st659\w2k\EC-Lab\Data\ITO Characterisation 17-5-17\
	Host : 144.32.136.43
Device : SP-300 (SN 0182)
Address : USB
EC-Lab for windows v10.44 (software)
Internet server v10.44 (firmware)
Command interpretor v10.44 (firmware)
Electrode material :
Initial state :
Electrolyte :
Comments :
Cable : standard
Electrode surface area : 0.001 cm²
Characteristic mass : 0.001 g
Equivalent Weight : 0.000 g/eq.
Density : 0.000 g/cm3
Ei (V)              0.000
vs.                 Eoc
dE/dt               500.000
dE/dt unit          mV/s
E1 (V)              0.100
vs.                 Ref
Step percent        50
N                   10
E range min (V)     -10.000
E range max (V)     10.000
I Range             Auto
I Range min         Unset
I Range max         Unset
I Range init        Unset
Bandwidth           8
E2 (V)              -0.600
vs.                 Ref
nc cycles           2
Reverse Scan        1
Ef (V)              0.000
vs.                 Eoc

mode	ox/red	error	control changes	counter inc.	time/s	control/V	Ewe/V	<I>/mA	cycle number	(Q-Qo)/C	P/W
2	1	0	0	1	412.787	-0.599827	-0.600031	-0.0124543	2	-8.23587e-06	7.47295e-06
2	1	0	1	1	412.811	-0.587998	-0.588213	-0.0105239	2	-8.50141e-06	6.19032e-06
2	1	0	0	1	412.837	-0.574703	-0.574918	-0.00943308	2	-8.76543e-06	5.42325e-06
2	1	0	0	1	412.864	-0.561308	-0.561509	-0.00856241	2	-9.00558e-06	4.80787e-06
2	1	0	1	1	412.891	-0.548014	-0.548224	-0.00780919	2	-9.22251e-06	4.28119e-06
2	1	0	0	1	412.917	-0.534719	-0.534914	-0.00713827	2	-9.4205e-06	3.81836e-06
2	1	0	0	1	412.944	-0.521324	-0.521528	-0.00652707	2	-9.60291e-06	3.40405e-06
2	1	0	1	1	412.971	-0.507995	-0.508207	-0.00597598	2	-9.76847e-06	3.03704e-06
2	1	0	0	1	412.997	-0.4947	-0.494907	-0.00547161	2	-9.92002e-06	2.70794e-06
2	1	0	1	1	413.024	-0.481406	-0.481624	-0.00501015	2	-1.00588e-05	2.41301e-06
2	1	0	1	1	413.051	-0.468011	-0.468216	-0.00458197	2	-1.01867e-05	2.14536e-06
2	1	0	0	1	413.077	-0.454716	-0.454887	-0.00418546	2	-1.03027e-05	1.90391e-06
2	1	0	0	1	413.135	-0.426093	-0.426298	-0.0034478	2	-1.05245e-05	1.46979e-06
2	1	0	0	1	413.161	-0.412698	-0.412898	-0.00313299	2	-1.06122e-05	1.2936e-06
2	1	0	1	1	413.188	-0.399404	-0.399606	-0.00284536	2	-1.06912e-05	1.13702e-06
2	1	0	0	1	413.215	-0.386109	-0.386318	-0.00256999	2	-1.07628e-05	9.92835e-07
2	1	0	0	1	413.241	-0.372714	-0.37289	-0.00230706	2	-1.08276e-05	8.60281e-07
2	1	0	1	1	413.268	-0.359419	-0.359648	-0.00206222	2	-1.08852e-05	7.41672e-07
2	1	0	0	1	413.295	-0.346124	-0.346333	-0.00182077	2	-1.09364e-05	6.30593e-07
2	1	0	1	1	413.321	-0.332796	-0.332972	-0.00158688	2	-1.09812e-05	5.28385e-07
2	1	0	1	1	413.348	-0.319401	-0.319573	-0.00136083	2	-1.10202e-05	4.34885e-07
2	1	0	0	1	413.375	-0.306106	-0.3063	-0.00113504	2	-1.1053e-05	3.47663e-07
2	1	0	1	1	413.401	-0.292811	-0.292973	-0.00091109	2	-1.10798e-05	2.66925e-07
2	1	0	1	1	413.428	-0.279416	-0.27956	-0.000689343	2	-1.11008e-05	1.92713e-07
2	1	0	0	1	413.455	-0.266121	-0.266296	-0.000468991	2	-1.11158e-05	1.24891e-07
2	1	0	1	1	413.481	-0.252793	-0.25298	-0.000250814	2	-1.11249e-05	6.3451e-08
2	1	0	0	1	413.508	-0.239498	-0.239649	-4.25388e-05	2	-1.11283e-05	1.01944e-08
2	1	0	0	1	413.535	-0.226103	-0.226292	0.000146161	2	-1.11264e-05	3.30751e-08
2	1	0	1	1	413.561	-0.212808	-0.212983	0.000317723	2	-1.11198e-05	6.76694e-08
2	1	0	0	1	413.588	-0.199513	-0.199662	0.000468729	2	-1.11088e-05	9.35873e-08
2	1	0	0	1	413.615	-0.186118	-0.186316	0.000598234	2	-1.10941e-05	1.1146e-07
2	1	0	1	1	413.641	-0.172823	-0.17297	0.000715591	2	-1.10761e-05	1.23776e-07
2	1	0	0	1	413.668	-0.159495	-0.159654	0.000824871	2	-1.10552e-05	1.31694e-07
2	1	0	1	1	413.694	-0.1462	-0.146378	0.000915837	2	-1.10315e-05	1.34058e-07
2	1	0	1	1	413.721	-0.132805	-0.132964	0.00100673	2	-1.10053e-05	1.33859e-07
2	1	0	0	1	413.748	-0.11951	-0.119656	0.00108532	2	-1.09771e-05	1.29865e-07
2	1	0	1	1	413.774	-0.106215	-0.106356	0.00115468	2	-1.09468e-05	1.22807e-07
2	1	0	1	1	413.801	-0.0928204	-0.0929549	0.0012183	2	-1.09146e-05	1.13247e-07
2	1	0	0	1	413.828	-0.0794921	-0.079649	0.00126984	2	-1.08811e-05	1.01142e-07
2	1	0	1	1	413.854	-0.0661972	-0.0663373	0.00130641	2	-1.08464e-05	8.66638e-08
2	1	0	0	1	413.881	-0.0529023	-0.0530672	0.0013352	2	-1.08108e-05	7.08552e-08
2	1	0	0	1	413.908	-0.0395074	-0.0396348	0.00135975	2	-1.07743e-05	5.38936e-08
2	1	0	1	1	413.934	-0.0262125	-0.0263407	0.00137206	2	-1.07376e-05	3.6141e-08
2	1	0	0	1	413.961	-0.0129175	-0.0130702	0.00137915	2	-1.07006e-05	1.80258e-08
2	1	0	0	1	413.988	0.00049038	0.00032516	0.00138928	2	-1.06631e-05	4.51738e-10
2	1	0	1	1	414.014	0.0138056	0.0136964	0.00139867	2	-1.06255e-05	1.91567e-08
2	1	0	0	1	414.041	0.0271005	0.0269941	0.00140262	2	-1.05879e-05	3.78625e-08
2	1	0	1	1	414.068	0.0403955	0.0402696	0.00140775	2	-1.05501e-05	5.66895e-08
2	1	0	1	1	414.094	0.0537904	0.0536956	0.00142032	2	-1.05118e-05	7.62649e-08
2	1	0	0	1	414.121	0.0670853	0.0670141	0.00143252	2	-1.04734e-05	9.59991e-08
2	1	0	1	1	414.148	0.0803802	0.0802985	0.00144878	2	-1.04347e-05	1.16335e-07
2	1	0	1	1	414.174	0.0937418	0.0936279	0.00146842	2	-1.03953e-05	1.37485e-07
2	0	0	1	1	414.191	0.0980401	0.0979304	0.000900017	2	-1.03725e-05	8.8139e-08
2	0	0	0	1	414.218	0.0847119	0.0845929	-0.000174248	2	-1.03679e-05	1.47402e-08
2	0	0	1	1	414.244	0.071417	0.0713077	-0.000483472	2	-1.03774e-05	3.44753e-08
2	0	0	0	1	414.271	0.058122	0.058021	-0.000698344	2	-1.03937e-05	4.05186e-08
2	0	0	0	1	414.298	0.0447272	0.0445965	-0.000884503	2	-1.04155e-05	3.94457e-08
2	0	0	1	1	414.324	0.0314322	0.0312926	-0.00104268	2	-1.04415e-05	3.26282e-08
2	0	0	0	1	414.351	0.0181373	0.0179892	-0.001187	2	-1.04717e-05	2.13531e-08
2	0	0	1	1	414.377	0.00480905	0.00466144	-0.00132894	2	-1.05056e-05	6.19479e-09
2	0	0	1	1	414.404	-0.00858584	-0.00877059	-0.00145799	2	-1.05434e-05	1.27875e-08
2	0	0	0	1	414.431	-0.0218808	-0.0220458	-0.00158016	2	-1.05842e-05	3.48358e-08
2	0	0	1	1	414.457	-0.0351757	-0.0353403	-0.0017023	2	-1.06283e-05	6.01598e-08
2	0	0	1	1	414.484	-0.0485706	-0.0487648	-0.00182122	2	-1.0676e-05	8.88117e-08
2	0	0	0	1	414.511	-0.0618655	-0.0620523	-0.0019353	2	-1.07264e-05	1.2009e-07
2	0	0	1	1	414.537	-0.0751605	-0.0753484	-0.00204939	2	-1.07798e-05	1.54418e-07
2	0	0	0	1	414.564	-0.0884887	-0.0886649	-0.00215982	2	-1.08363e-05	1.915e-07
2	0	0	0	1	414.591	-0.101884	-0.102033	-0.00227281	2	-1.08961e-05	2.31901e-07
2	0	0	1	1	414.617	-0.115179	-0.115353	-0.00238436	2	-1.09584e-05	2.75043e-07
2	0	0	0	1	414.644	-0.128473	-0.128674	-0.00249859	2	-1.10238e-05	3.21503e-07
2	0	0	0	1	414.671	-0.141868	-0.142073	-0.00261287	2	-1.10927e-05	3.7122e-07
2	0	0	1	1	414.697	-0.155163	-0.155355	-0.00272203	2	-1.11641e-05	4.2288e-07
2	0	0	0	1	414.724	-0.16848	-0.16869	-0.00284361	2	-1.12385e-05	4.79689e-07
2	0	0	1	1	414.751	-0.181786	-0.181994	-0.00295929	2	-1.13161e-05	5.38574e-07
2	0	0	1	1	414.777	-0.195181	-0.195373	-0.00307806	2	-1.13974e-05	6.01369e-07
2	0	0	0	1	414.804	-0.208476	-0.208679	-0.00321144	2	-1.14815e-05	6.70159e-07
2	0	0	1	1	414.831	-0.221771	-0.221981	-0.00335629	2	-1.15693e-05	7.45032e-07
2	0	0	1	1	414.857	-0.235166	-0.235383	-0.00351613	2	-1.16618e-05	8.27637e-07
2	0	0	0	1	414.884	-0.248461	-0.248679	-0.00370077	2	-1.17582e-05	9.20304e-07
2	0	0	1	1	414.911	-0.261789	-0.261992	-0.00390433	2	-1.18597e-05	1.0229e-06
2	0	0	0	1	414.937	-0.275084	-0.275283	-0.00412666	2	-1.19669e-05	1.136e-06
2	0	0	0	1	414.964	-0.288479	-0.288661	-0.00436241	2	-1.20811e-05	1.25926e-06
2	0	0	1	1	414.991	-0.301774	-0.301994	-0.00460267	2	-1.22008e-05	1.38998e-06
2	0	0	0	1	415.017	-0.315069	-0.315287	-0.00483519	2	-1.23268e-05	1.52447e-06
2	0	0	0	1	415.044	-0.328464	-0.328667	-0.00506568	2	-1.24599e-05	1.66492e-06
2	0	0	1	1	415.071	-0.34177	-0.342024	-0.00529073	2	-1.25981e-05	1.80956e-06
2	0	0	0	1	415.097	-0.355087	-0.355336	-0.00549725	2	-1.2742e-05	1.95337e-06
2	0	0	1	1	415.124	-0.368382	-0.368609	-0.00569611	2	-1.28913e-05	2.09964e-06
2	0	0	1	1	415.151	-0.381777	-0.38202	-0.00590755	2	-1.30472e-05	2.25681e-06
2	0	0	0	1	415.177	-0.395072	-0.39533	-0.00611726	2	-1.32076e-05	2.41834e-06
2	0	0	1	1	415.204	-0.408367	-0.408599	-0.00633151	2	-1.33736e-05	2.58705e-06
2	0	0	1	1	415.231	-0.421762	-0.422009	-0.0065728	2	-1.35469e-05	2.77378e-06
2	0	0	0	1	415.257	-0.43509	-0.435331	-0.00682863	2	-1.37255e-05	2.97271e-06
2	0	0	1	1	415.284	-0.448385	-0.448612	-0.00710005	2	-1.39112e-05	3.18516e-06
2	0	0	0	1	415.31	-0.46168	-0.461926	-0.00739922	2	-1.41044e-05	3.41789e-06
2	0	0	0	1	415.337	-0.475075	-0.475303	-0.00771759	2	-1.43074e-05	3.6682e-06
2	0	0	1	1	415.364	-0.48837	-0.488622	-0.0080639	2	-1.45177e-05	3.9402e-06
2	0	0	0	1	415.39	-0.501665	-0.501917	-0.00843617	2	-1.47376e-05	4.23426e-06
2	0	0	0	1	415.417	-0.515059	-0.515317	-0.00883092	2	-1.49694e-05	4.55072e-06
2	0	0	1	1	415.444	-0.528388	-0.528627	-0.00925491	2	-1.52104e-05	4.89239e-06
2	0	0	0	1	415.47	-0.541683	-0.541928	-0.00970291	2	-1.5463e-05	5.25828e-06
2	0	0	1	1	415.497	-0.554978	-0.555239	-0.0101813	2	-1.57279e-05	5.65307e-06
2	0	0	1	1	415.554	-0.583367	-0.583571	-0.0112676	2	-1.63286e-05	6.57541e-06
2	0	0	0	1	415.58	-0.596662	-0.596875	-0.0118278	2	-1.66364e-05	7.05974e-06
2	0	0	0	1	415.587	-0.60016	-0.600359	-0.0120017	2	-1.6715e-05	7.20535e-06