File: TAP_Report/Data/Res_SHU/100 uM RS 10mM SHU_08_CV_C01_2.mpt
EC-Lab ASCII FILE
Nb header lines : 53

Cyclic Voltammetry

Run on channel : 1 (SN 0696)
User :
Electrode connection : standard
Ewe ctrl range : min = -10.00 V, max = 10.00 V
Ewe,I filtering : 50 kHz
Channel : Grounded
Acquisition started on : 05/17/2017 13:04:41
Saved on :
	File : 100 uM RS 10mM SHU_08_CV_C01.mpr
	Directory : \\userfs\st659\w2k\EC-Lab\Data\ITO Characterisation 17-5-17\
	Host : 144.32.136.43
Device : SP-300 (SN 0182)
Address : USB
EC-Lab for windows v10.44 (software)
Internet server v10.44 (firmware)
Command interpretor v10.44 (firmware)
Electrode material :
Initial state :
Electrolyte :
Comments :
Cable : standard
Electrode surface area : 0.001 cm²
Characteristic mass : 0.001 g
Equivalent Weight : 0.000 g/eq.
Density : 0.000 g/cm3
Ei (V)              0.000
vs.                 Eoc
dE/dt               5000.000
dE/dt unit          mV/s
E1 (V)              0.100
vs.                 Ref
Step percent        50
N                   10
E range min (V)     -10.000
E range max (V)     10.000
I Range             Auto
I Range min         Unset
I Range max         Unset
I Range init        Unset
Bandwidth           8
E2 (V)              -0.600
vs.                 Ref
nc cycles           2
Reverse Scan        1
Ef (V)              0.000
vs.                 Eoc

mode	ox/red	error	control changes	counter inc.	time/s	control/V	Ewe/V	<I>/mA	cycle number	(Q-Qo)/C	P/W
2	1	0	1	1	434.141	-0.599161	-0.599447	-0.0335348	2	-3.09476e-06	2.01023e-05
2	1	0	0	1	434.144	-0.583667	-0.583938	-0.0204828	2	-3.17309e-06	1.19607e-05
2	1	0	0	1	434.148	-0.563674	-0.563936	-0.0121024	2	-3.23606e-06	6.82498e-06
2	1	0	0	1	434.152	-0.543682	-0.543915	-0.00702364	2	-3.27325e-06	3.82026e-06
2	1	0	0	1	434.156	-0.523689	-0.523947	-0.00358365	2	-3.29382e-06	1.87764e-06
2	1	0	0	1	434.16	-0.503697	-0.503952	-0.00104914	2	-3.30265e-06	5.28718e-07
2	1	0	0	1	434.164	-0.483705	-0.483963	0.000884639	2	-3.30265e-06	4.28133e-07
2	1	0	0	1	434.168	-0.463712	-0.463945	0.00245522	2	-3.29575e-06	1.13909e-06
2	1	0	0	1	434.172	-0.44372	-0.443969	0.00368102	2	-3.28326e-06	1.63426e-06
2	1	0	0	1	434.176	-0.423728	-0.423977	0.00474711	2	-3.26624e-06	2.01267e-06
2	1	0	0	1	434.18	-0.403735	-0.403996	0.00561815	2	-3.24541e-06	2.26971e-06
2	1	0	0	1	434.184	-0.383743	-0.384002	0.00638665	2	-3.22129e-06	2.45249e-06
2	1	0	0	1	434.188	-0.36375	-0.364003	0.00704401	2	-3.19431e-06	2.56404e-06
2	1	0	0	1	434.192	-0.343758	-0.344011	0.00764293	2	-3.16488e-06	2.62926e-06
2	1	0	0	1	434.196	-0.323766	-0.323956	0.00814801	2	-3.13319e-06	2.6396e-06
2	1	0	0	1	434.2	-0.303773	-0.303989	0.00859679	2	-3.09967e-06	2.61333e-06
2	1	0	0	1	434.204	-0.283781	-0.283989	0.00902159	2	-3.06435e-06	2.56203e-06
2	1	0	0	1	434.208	-0.263789	-0.264007	0.00940534	2	-3.02744e-06	2.48308e-06
2	1	0	0	1	434.212	-0.243796	-0.243997	0.00977112	2	-2.98909e-06	2.38412e-06
2	1	0	0	1	434.216	-0.223804	-0.224025	0.0101314	2	-2.94924e-06	2.2697e-06
2	1	0	0	1	434.22	-0.203811	-0.204	0.010519	2	-2.90792e-06	2.14589e-06
2	1	0	0	1	434.224	-0.183819	-0.184032	0.0108591	2	-2.86512e-06	1.99842e-06
2	1	0	0	1	434.228	-0.163827	-0.164014	0.0112737	2	-2.82078e-06	1.84904e-06
2	1	0	0	1	434.232	-0.143834	-0.144041	0.0116938	2	-2.7748e-06	1.68438e-06
2	1	0	0	1	434.236	-0.123842	-0.12402	0.0121077	2	-2.72718e-06	1.50161e-06
2	1	0	0	1	434.24	-0.10385	-0.104022	0.0125019	2	-2.67791e-06	1.30047e-06
2	1	0	0	1	434.244	-0.0838571	-0.0840495	0.0129057	2	-2.62699e-06	1.08472e-06
2	1	0	0	1	434.248	-0.0638648	-0.0640669	0.0133313	2	-2.57444e-06	8.54098e-07
2	1	0	0	1	434.252	-0.0438724	-0.0440733	0.013767	2	-2.5202e-06	6.06757e-07
2	1	0	0	1	434.256	-0.02388	-0.02406	0.0141315	2	-2.46434e-06	3.40004e-07
2	1	0	0	1	434.26	-0.00388763	-0.00409161	0.0144577	2	-2.40711e-06	5.91553e-08
2	1	0	0	1	434.264	0.0161047	0.0159766	0.0147233	2	-2.34865e-06	2.35228e-07
2	1	0	0	1	434.268	0.0360971	0.0359391	0.0149335	2	-2.28931e-06	5.36695e-07
2	1	0	0	1	434.272	0.0564227	0.056304	0.0151837	2	-2.22881e-06	8.54902e-07
2	1	0	0	1	434.276	0.076415	0.0762499	0.0152294	2	-2.16799e-06	1.16124e-06
2	1	0	0	1	434.28	0.0954078	0.0952486	0.0152808	2	-2.11e-06	1.45548e-06
2	1	0	1	1	434.281	0.100906	0.100749	0.0153088	2	-2.09318e-06	1.54235e-06
2	0	0	1	1	434.282	0.0944082	0.0943801	0.00864699	2	-2.08041e-06	8.16104e-07
2	0	0	1	1	434.286	0.0744158	0.074356	0.000448423	2	-2.06589e-06	3.3343e-08
2	0	0	1	1	434.29	0.0544234	0.0543809	-0.00249664	2	-2.07081e-06	1.35769e-07
2	0	0	1	1	434.294	0.0340979	0.0340095	-0.00433787	2	-2.08488e-06	1.47529e-07
2	0	0	1	1	434.298	0.0141055	0.0140221	-0.00548139	2	-2.10468e-06	7.68604e-08
2	0	0	1	1	434.302	-0.00588687	-0.00599868	-0.00646447	2	-2.12871e-06	3.87782e-08
2	0	0	1	1	434.306	-0.0258792	-0.0259919	-0.00728073	2	-2.15634e-06	1.8924e-07
2	0	0	1	1	434.31	-0.0458716	-0.0460092	-0.00803592	2	-2.18705e-06	3.69726e-07
2	0	0	1	1	434.314	-0.065864	-0.0659946	-0.00870394	2	-2.22062e-06	5.74413e-07
2	0	0	1	1	434.318	-0.0858564	-0.0859606	-0.00931602	2	-2.25676e-06	8.00811e-07
2	0	0	1	1	434.322	-0.105849	-0.105943	-0.00996445	2	-2.29541e-06	1.05566e-06
2	0	0	1	1	434.326	-0.125841	-0.125965	-0.010583	2	-2.33656e-06	1.33308e-06
2	0	0	1	1	434.33	-0.145834	-0.145959	-0.0112115	2	-2.38023e-06	1.63643e-06
2	0	0	1	1	434.334	-0.165826	-0.165956	-0.0118521	2	-2.42638e-06	1.96693e-06
2	0	0	1	1	434.338	-0.185818	-0.185958	-0.0124861	2	-2.47513e-06	2.32188e-06
2	0	0	1	1	434.342	-0.205811	-0.205947	-0.0131383	2	-2.52637e-06	2.70579e-06
2	0	0	1	1	434.346	-0.225803	-0.225963	-0.0138255	2	-2.58037e-06	3.12405e-06
2	0	0	1	1	434.35	-0.245795	-0.245936	-0.014533	2	-2.63718e-06	3.57418e-06
2	0	0	1	1	434.354	-0.265788	-0.265921	-0.0152075	2	-2.69675e-06	4.04398e-06
2	0	0	1	1	434.358	-0.28578	-0.285896	-0.0159253	2	-2.7591e-06	4.55299e-06
2	0	0	1	1	434.362	-0.305773	-0.305921	-0.0165728	2	-2.82417e-06	5.06996e-06
2	0	0	1	1	434.366	-0.325765	-0.325892	-0.0171855	2	-2.89179e-06	5.60061e-06
2	0	0	1	1	434.37	-0.345757	-0.34593	-0.0178042	2	-2.96182e-06	6.159e-06
2	0	0	1	1	434.374	-0.36575	-0.365914	-0.0184051	2	-3.03436e-06	6.73467e-06
2	0	0	1	1	434.378	-0.385742	-0.385934	-0.0189965	2	-3.10922e-06	7.33142e-06
2	0	0	1	1	434.382	-0.405734	-0.405904	-0.0195856	2	-3.1864e-06	7.94986e-06
2	0	0	1	1	434.386	-0.425727	-0.425909	-0.0202209	2	-3.26606e-06	8.61228e-06
2	0	0	1	1	434.39	-0.445719	-0.445879	-0.0208965	2	-3.3484e-06	9.31731e-06
2	0	0	1	1	434.394	-0.465712	-0.465877	-0.0216396	2	-3.4335e-06	1.00814e-05
2	0	0	1	1	434.398	-0.485704	-0.48588	-0.0224502	2	-3.52175e-06	1.09081e-05
2	0	0	1	1	434.402	-0.505696	-0.505863	-0.0233314	2	-3.61341e-06	1.18025e-05
2	0	0	1	1	434.406	-0.525689	-0.525878	-0.024338	2	-3.70883e-06	1.27989e-05
2	0	0	1	1	434.41	-0.545681	-0.545844	-0.0254309	2	-3.80844e-06	1.38813e-05
2	0	0	1	1	434.414	-0.565673	-0.565862	-0.0267315	2	-3.91282e-06	1.51264e-05
2	0	0	1	1	434.418	-0.585666	-0.58585	-0.0281398	2	-4.02262e-06	1.64857e-05
2	0	0	1	1	434.421	-0.599161	-0.599341	-0.0292051	2	-4.09996e-06	1.75038e-05
2	0	0	0	1	434.421	-0.60016	-0.600317	-0.0292475	2	-4.10581e-06	1.75578e-05