File: TAP_Report/Data/Res_SHU/100 uM RS 10mM SHU_05_CV_C01_2.mpt
EC-Lab ASCII FILE
Nb header lines : 53

Cyclic Voltammetry

Run on channel : 1 (SN 0696)
User :
Electrode connection : standard
Ewe ctrl range : min = -10.00 V, max = 10.00 V
Ewe,I filtering : 50 kHz
Channel : Grounded
Acquisition started on : 05/17/2017 13:04:41
Saved on :
	File : 100 uM RS 10mM SHU_05_CV_C01.mpr
	Directory : \\userfs\st659\w2k\EC-Lab\Data\ITO Characterisation 17-5-17\
	Host : 144.32.136.43
Device : SP-300 (SN 0182)
Address : USB
EC-Lab for windows v10.44 (software)
Internet server v10.44 (firmware)
Command interpretor v10.44 (firmware)
Electrode material :
Initial state :
Electrolyte :
Comments :
Cable : standard
Electrode surface area : 0.001 cm²
Characteristic mass : 0.001 g
Equivalent Weight : 0.000 g/eq.
Density : 0.000 g/cm3
Ei (V)              0.000
vs.                 Eoc
dE/dt               500.000
dE/dt unit          mV/s
E1 (V)              0.100
vs.                 Ref
Step percent        50
N                   10
E range min (V)     -10.000
E range max (V)     10.000
I Range             Auto
I Range min         Unset
I Range max         Unset
I Range init        Unset
Bandwidth           8
E2 (V)              -0.600
vs.                 Ref
nc cycles           2
Reverse Scan        1
Ef (V)              0.000
vs.                 Eoc

mode	ox/red	error	control changes	counter inc.	time/s	control/V	Ewe/V	<I>/mA	cycle number	(Q-Qo)/C	P/W
2	1	0	0	1	418.945	-0.60016	-0.600371	-0.0120105	2	-7.46319e-06	7.21076e-06
2	1	0	0	1	418.968	-0.588298	-0.588545	-0.00875318	2	-7.69208e-06	5.15165e-06
2	1	0	1	1	418.995	-0.575003	-0.575223	-0.0075951	2	-7.90665e-06	4.36887e-06
2	1	0	0	1	419.022	-0.561675	-0.561905	-0.00672078	2	-8.09464e-06	3.77644e-06
2	1	0	1	1	419.048	-0.54838	-0.548581	-0.00601449	2	-8.2619e-06	3.29944e-06
2	1	0	1	1	419.075	-0.534985	-0.53519	-0.00541223	2	-8.41298e-06	2.89657e-06
2	1	0	0	1	419.102	-0.52169	-0.521916	-0.00490088	2	-8.54822e-06	2.55785e-06
2	1	0	1	1	419.128	-0.508395	-0.508611	-0.00443615	2	-8.67049e-06	2.25628e-06
2	1	0	1	1	419.155	-0.495	-0.495205	-0.00402772	2	-8.78202e-06	1.99455e-06
2	1	0	1	1	419.212	-0.466378	-0.466539	-0.00323346	2	-8.9904e-06	1.50854e-06
2	1	0	0	1	419.239	-0.453083	-0.453235	-0.00292287	2	-9.07132e-06	1.32474e-06
2	1	0	0	1	419.266	-0.439688	-0.439874	-0.0026325	2	-9.14479e-06	1.15797e-06
2	1	0	1	1	419.292	-0.426393	-0.426577	-0.00235584	2	-9.21007e-06	1.00495e-06
2	1	0	0	1	419.319	-0.413098	-0.41329	-0.00209487	2	-9.2683e-06	8.65788e-07
2	1	0	0	1	419.346	-0.399703	-0.399901	-0.00185233	2	-9.3202e-06	7.4075e-07
2	1	0	1	1	419.372	-0.386375	-0.386579	-0.00162246	2	-9.36531e-06	6.27208e-07
2	1	0	0	1	419.399	-0.37308	-0.373254	-0.00140329	2	-9.40452e-06	5.23784e-07
2	1	0	1	1	419.425	-0.359785	-0.359979	-0.00120203	2	-9.43814e-06	4.32707e-07
2	1	0	1	1	419.452	-0.34639	-0.346596	-0.00100244	2	-9.46667e-06	3.47443e-07
2	1	0	0	1	419.479	-0.333095	-0.333283	-0.000820871	2	-9.4899e-06	2.73582e-07
2	1	0	1	1	419.505	-0.319801	-0.319939	-0.000645905	2	-9.50836e-06	2.0665e-07
2	1	0	1	1	419.532	-0.306439	-0.306607	-0.000466296	2	-9.52235e-06	1.4297e-07
2	1	0	0	1	419.559	-0.293077	-0.293219	-0.000313272	2	-9.53185e-06	9.18575e-08
2	1	0	1	1	419.585	-0.279782	-0.279918	-0.000159385	2	-9.53718e-06	4.46148e-08
2	1	0	0	1	419.612	-0.266488	-0.266652	-1.22228e-05	2	-9.53852e-06	3.25924e-09
2	1	0	0	1	419.639	-0.253093	-0.253273	0.00013422	2	-9.5358e-06	3.39943e-08
2	1	0	1	1	419.665	-0.239798	-0.239957	0.000286793	2	-9.52917e-06	6.88179e-08
2	1	0	0	1	419.692	-0.226503	-0.226693	0.000428665	2	-9.51864e-06	9.71752e-08
2	1	0	1	1	419.719	-0.213175	-0.213336	0.000586609	2	-9.50407e-06	1.25145e-07
2	1	0	1	1	419.745	-0.19978	-0.199915	0.000740476	2	-9.48532e-06	1.48033e-07
2	1	0	0	1	419.772	-0.186485	-0.186655	0.000891693	2	-9.46277e-06	1.66439e-07
2	1	0	1	1	419.799	-0.17319	-0.173353	0.00104322	2	-9.43608e-06	1.80844e-07
2	1	0	1	1	419.825	-0.159795	-0.159926	0.00119945	2	-9.40509e-06	1.91823e-07
2	1	0	0	1	419.852	-0.1465	-0.146646	0.0013534	2	-9.37012e-06	1.98472e-07
2	1	0	1	1	419.879	-0.133205	-0.133338	0.00151967	2	-9.33094e-06	2.02629e-07
2	1	0	0	1	419.905	-0.119877	-0.12	0.00167732	2	-9.28734e-06	2.01278e-07
2	1	0	0	1	419.932	-0.106482	-0.106593	0.00184335	2	-9.23917e-06	1.96489e-07
2	1	0	1	1	419.959	-0.0931869	-0.0932969	0.00200385	2	-9.18715e-06	1.86953e-07
2	1	0	0	1	419.985	-0.079892	-0.0800435	0.00216007	2	-9.13085e-06	1.729e-07
2	1	0	0	1	420.012	-0.0664971	-0.0666404	0.00232103	2	-9.06979e-06	1.54674e-07
2	1	0	1	1	420.039	-0.0532022	-0.0533658	0.00248217	2	-9.00497e-06	1.32463e-07
2	1	0	0	1	420.065	-0.0398739	-0.0400104	0.00263583	2	-8.93591e-06	1.05461e-07
2	1	0	1	1	420.092	-0.026579	-0.0266881	0.00277388	2	-8.86294e-06	7.40295e-08
2	1	0	1	1	420.119	-0.0131841	-0.0133224	0.00289474	2	-8.78597e-06	3.85649e-08
2	1	0	0	1	420.145	0.000123853	-5.2439e-05	0.00300716	2	-8.70642e-06	1.57693e-10
2	1	0	1	1	420.172	0.0134058	0.0133088	0.00309501	2	-8.6242e-06	4.11909e-08
2	1	0	1	1	420.199	0.0268007	0.0266823	0.00316387	2	-8.53937e-06	8.44196e-08
2	1	0	0	1	420.225	0.0400956	0.039988	0.00320729	2	-8.45362e-06	1.28253e-07
2	1	0	1	1	420.252	0.0534238	0.0533421	0.00324332	2	-8.36664e-06	1.73006e-07
2	1	0	0	1	420.278	0.0667187	0.0666389	0.00326527	2	-8.27901e-06	2.17594e-07
2	1	0	0	1	420.305	0.0801136	0.0800375	0.00328162	2	-8.1903e-06	2.62653e-07
2	1	0	1	1	420.332	0.0934086	0.0933163	0.00328761	2	-8.10203e-06	3.06788e-07
2	0	0	1	1	420.349	0.0980401	0.0978713	0.00214772	2	-8.04897e-06	2.102e-07
2	0	0	0	1	420.376	0.0847452	0.0845586	0.00121699	2	-8.00888e-06	1.02907e-07
2	0	0	1	1	420.402	0.0714503	0.0712508	0.000815721	2	-7.98317e-06	5.81207e-08
2	0	0	1	1	420.429	0.0580554	0.0578997	0.000504551	2	-7.96661e-06	2.92133e-08
2	0	0	0	1	420.456	0.0447605	0.0445878	0.00023869	2	-7.9578e-06	1.06427e-08
2	0	0	1	1	420.482	0.0314322	0.0312208	6.90343e-06	2	-7.95566e-06	2.1553e-10
2	0	0	0	1	420.509	0.0181373	0.0179455	-0.000204827	2	-7.95932e-06	3.67573e-09
2	0	0	0	1	420.536	0.00474241	0.0045314	-0.000405439	2	-7.96853e-06	1.8372e-09
2	0	0	1	1	420.562	-0.00855252	-0.00880633	-0.00059454	2	-7.98283e-06	5.23571e-09
2	0	0	0	1	420.589	-0.0218475	-0.0220779	-0.000765747	2	-8.0019e-06	1.69061e-08
2	0	0	0	1	420.616	-0.0352423	-0.0354808	-0.000940418	2	-8.02572e-06	3.33667e-08
2	0	0	1	1	420.642	-0.0485706	-0.0488088	-0.0011032	2	-8.05394e-06	5.38457e-08
2	0	0	0	1	420.669	-0.0618655	-0.0621184	-0.00126055	2	-8.08641e-06	7.83036e-08
2	0	0	1	1	420.695	-0.0751605	-0.0754029	-0.00141921	2	-8.12306e-06	1.07013e-07
2	0	0	1	1	420.722	-0.0885553	-0.0887895	-0.00157236	2	-8.16413e-06	1.39609e-07
2	0	0	0	1	420.749	-0.10185	-0.102061	-0.00172114	2	-8.20894e-06	1.75661e-07
2	0	0	1	1	420.775	-0.115145	-0.115375	-0.00187622	2	-8.25772e-06	2.16468e-07
2	0	0	1	1	420.802	-0.12854	-0.128776	-0.00202509	2	-8.31088e-06	2.60784e-07
2	0	0	0	1	420.829	-0.141868	-0.142121	-0.0021695	2	-8.3676e-06	3.08332e-07
2	0	0	1	1	420.855	-0.155163	-0.155377	-0.00231269	2	-8.42813e-06	3.59339e-07
2	0	0	0	1	420.882	-0.168458	-0.168727	-0.00247252	2	-8.49281e-06	4.17179e-07
2	0	0	0	1	420.909	-0.181853	-0.18212	-0.00263738	2	-8.56222e-06	4.8032e-07
2	0	0	1	1	420.935	-0.195148	-0.19537	-0.00280352	2	-8.63556e-06	5.47723e-07
2	0	0	0	1	420.962	-0.208443	-0.208677	-0.00298092	2	-8.71351e-06	6.22049e-07
2	0	0	1	1	420.989	-0.221771	-0.222036	-0.00316241	2	-8.79621e-06	7.02169e-07
2	0	0	1	1	421.015	-0.235166	-0.235439	-0.00332137	2	-8.88402e-06	7.81978e-07
2	0	0	0	1	421.042	-0.248461	-0.24874	-0.00348841	2	-8.97554e-06	8.67706e-07
2	0	0	1	1	421.069	-0.261756	-0.26202	-0.00364377	2	-9.07137e-06	9.54741e-07
2	0	0	1	1	421.095	-0.275151	-0.27539	-0.00379752	2	-9.17212e-06	1.0458e-06
2	0	0	0	1	421.122	-0.288446	-0.288683	-0.00396427	2	-9.27633e-06	1.14442e-06
2	0	0	1	1	421.149	-0.301741	-0.302015	-0.00412286	2	-9.38487e-06	1.24517e-06
2	0	0	0	1	421.175	-0.315069	-0.315347	-0.00429437	2	-9.49785e-06	1.35422e-06
2	0	0	0	1	421.202	-0.328464	-0.328708	-0.00447684	2	-9.61625e-06	1.47157e-06
2	0	0	1	1	421.229	-0.341759	-0.342068	-0.00466438	2	-9.73874e-06	1.59554e-06
2	0	0	0	1	421.255	-0.355054	-0.355348	-0.00486554	2	-9.86641e-06	1.72896e-06
2	0	0	0	1	421.282	-0.368449	-0.368732	-0.0050739	2	-1.00005e-05	1.87091e-06
2	0	0	1	1	421.309	-0.381744	-0.382031	-0.00531251	2	-1.01396e-05	2.02954e-06
2	0	0	0	1	421.335	-0.395061	-0.395376	-0.00555552	2	-1.02849e-05	2.19652e-06
2	0	0	1	1	421.362	-0.408367	-0.408652	-0.00580237	2	-1.04369e-05	2.37115e-06
2	0	0	1	1	421.389	-0.421762	-0.422065	-0.00607417	2	-1.0597e-05	2.56369e-06
2	0	0	0	1	421.415	-0.435057	-0.435357	-0.00635524	2	-1.07632e-05	2.76679e-06
2	0	0	1	1	421.442	-0.448352	-0.448624	-0.00664241	2	-1.0937e-05	2.97994e-06
2	0	0	1	1	421.469	-0.461746	-0.462039	-0.00695282	2	-1.11201e-05	3.21247e-06
2	0	0	0	1	421.495	-0.475041	-0.475344	-0.00726668	2	-1.13102e-05	3.45417e-06
2	0	0	1	1	421.522	-0.48837	-0.48866	-0.00759771	2	-1.1509e-05	3.7127e-06
2	0	0	0	1	421.548	-0.501665	-0.501967	-0.00793336	2	-1.17165e-05	3.98229e-06
2	0	0	0	1	421.575	-0.515059	-0.515356	-0.0082791	2	-1.19347e-05	4.26668e-06
2	0	0	1	1	421.602	-0.528354	-0.528662	-0.0086411	2	-1.21609e-05	4.56822e-06
2	0	0	0	1	421.628	-0.541649	-0.541939	-0.00902398	2	-1.23967e-05	4.89045e-06
2	0	0	0	1	421.655	-0.555044	-0.555358	-0.00943026	2	-1.2645e-05	5.23718e-06
2	0	0	1	1	421.682	-0.56835	-0.568672	-0.00987107	2	-1.29026e-05	5.6134e-06
2	0	0	1	1	421.739	-0.596962	-0.597199	-0.0108455	2	-1.34904e-05	6.47694e-06
2	0	0	1	1	421.745	-0.599827	-0.600039	-0.0109723	2	-1.35539e-05	6.58383e-06