File: TAP_Report/Data/Res_SHU/100 uM RS 10mM SHU_07_CV_C01_2.mpt
EC-Lab ASCII FILE
Nb header lines : 53

Cyclic Voltammetry

Run on channel : 1 (SN 0696)
User :
Electrode connection : standard
Ewe ctrl range : min = -10.00 V, max = 10.00 V
Ewe,I filtering : 50 kHz
Channel : Grounded
Acquisition started on : 05/17/2017 13:04:41
Saved on :
	File : 100 uM RS 10mM SHU_07_CV_C01.mpr
	Directory : \\userfs\st659\w2k\EC-Lab\Data\ITO Characterisation 17-5-17\
	Host : 144.32.136.43
Device : SP-300 (SN 0182)
Address : USB
EC-Lab for windows v10.44 (software)
Internet server v10.44 (firmware)
Command interpretor v10.44 (firmware)
Electrode material :
Initial state :
Electrolyte :
Comments :
Cable : standard
Electrode surface area : 0.001 cm²
Characteristic mass : 0.001 g
Equivalent Weight : 0.000 g/eq.
Density : 0.000 g/cm3
Ei (V)              0.000
vs.                 Eoc
dE/dt               2500.000
dE/dt unit          mV/s
E1 (V)              0.100
vs.                 Ref
Step percent        50
N                   10
E range min (V)     -10.000
E range max (V)     10.000
I Range             Auto
I Range min         Unset
I Range max         Unset
I Range init        Unset
Bandwidth           8
E2 (V)              -0.600
vs.                 Ref
nc cycles           2
Reverse Scan        1
Ef (V)              0.000
vs.                 Eoc

mode	ox/red	error	control changes	counter inc.	time/s	control/V	Ewe/V	<I>/mA	cycle number	(Q-Qo)/C	P/W
2	1	0	0	1	432.272	-0.599827	-0.600146	-0.0205397	2	-3.38052e-06	1.23268e-05
2	1	0	1	1	432.277	-0.586999	-0.58728	-0.0119186	2	-3.45734e-06	6.99956e-06
2	1	0	1	1	432.283	-0.572004	-0.572277	-0.00825624	2	-3.51628e-06	4.72486e-06
2	1	0	1	1	432.289	-0.55701	-0.55729	-0.00612614	2	-3.55881e-06	3.41404e-06
2	1	0	1	1	432.295	-0.542016	-0.54226	-0.00459408	2	-3.5906e-06	2.49119e-06
2	1	0	1	1	432.301	-0.527022	-0.527281	-0.00341607	2	-3.61439e-06	1.80123e-06
2	1	0	1	1	432.307	-0.512027	-0.512288	-0.00244106	2	-3.63179e-06	1.25053e-06
2	1	0	1	1	432.313	-0.497033	-0.497296	-0.0016127	2	-3.64383e-06	8.0199e-07
2	1	0	1	1	432.319	-0.482039	-0.482312	-0.000919361	2	-3.65131e-06	4.43419e-07
2	1	0	1	1	432.325	-0.467044	-0.467303	-0.000283228	2	-3.65481e-06	1.32353e-07
2	1	0	1	1	432.331	-0.45205	-0.452316	0.000272895	2	-3.65475e-06	1.23435e-07
2	1	0	1	1	432.337	-0.437056	-0.437312	0.000761955	2	-3.65158e-06	3.33212e-07
2	1	0	1	1	432.343	-0.422062	-0.422334	0.00120484	2	-3.64561e-06	5.08847e-07
2	1	0	1	1	432.349	-0.407067	-0.407332	0.00163127	2	-3.63703e-06	6.64469e-07
2	1	0	1	1	432.355	-0.391906	-0.392178	0.00208581	2	-3.62596e-06	8.18011e-07
2	1	0	1	1	432.361	-0.376912	-0.377154	0.00237572	2	-3.6126e-06	8.96012e-07
2	1	0	1	1	432.367	-0.361918	-0.362173	0.00268885	2	-3.59735e-06	9.73828e-07
2	1	0	1	1	432.373	-0.346924	-0.347179	0.00297931	2	-3.58034e-06	1.03435e-06
2	1	0	1	1	432.379	-0.331929	-0.332158	0.00325527	2	-3.56157e-06	1.08126e-06
2	1	0	1	1	432.385	-0.316935	-0.317172	0.00351219	2	-3.54118e-06	1.11397e-06
2	1	0	1	1	432.391	-0.301941	-0.302173	0.00376149	2	-3.51932e-06	1.13662e-06
2	1	0	1	1	432.397	-0.286946	-0.287154	0.00400792	2	-3.49595e-06	1.15089e-06
2	1	0	1	1	432.403	-0.271952	-0.272183	0.00424125	2	-3.47124e-06	1.1544e-06
2	1	0	1	1	432.409	-0.256958	-0.257171	0.00445666	2	-3.44515e-06	1.14612e-06
2	1	0	1	1	432.415	-0.241964	-0.242189	0.004671	2	-3.41778e-06	1.13126e-06
2	1	0	1	1	432.421	-0.226969	-0.227214	0.00489493	2	-3.38907e-06	1.1122e-06
2	1	0	1	1	432.427	-0.211975	-0.212208	0.00515659	2	-3.35891e-06	1.09427e-06
2	1	0	1	1	432.433	-0.196981	-0.197178	0.00538632	2	-3.32725e-06	1.06207e-06
2	1	0	1	1	432.439	-0.181986	-0.182205	0.00564737	2	-3.29413e-06	1.02898e-06
2	1	0	1	1	432.445	-0.166992	-0.167225	0.0059143	2	-3.25946e-06	9.8902e-07
2	1	0	1	1	432.451	-0.151998	-0.152196	0.00617849	2	-3.22314e-06	9.40341e-07
2	1	0	1	1	432.457	-0.137004	-0.137219	0.0064503	2	-3.18526e-06	8.85105e-07
2	1	0	1	1	432.463	-0.122009	-0.122184	0.00670395	2	-3.14584e-06	8.19115e-07
2	1	0	1	1	432.469	-0.107015	-0.107202	0.00698667	2	-3.10468e-06	7.48984e-07
2	1	0	1	1	432.475	-0.0920207	-0.0922124	0.00727304	2	-3.06193e-06	6.70664e-07
2	1	0	1	1	432.481	-0.0770264	-0.0772343	0.00753985	2	-3.01749e-06	5.82335e-07
2	1	0	1	1	432.487	-0.0620321	-0.0622436	0.00779191	2	-2.97145e-06	4.84997e-07
2	1	0	1	1	432.493	-0.0470379	-0.0472634	0.00803442	2	-2.92395e-06	3.79734e-07
2	1	0	1	1	432.499	-0.0320436	-0.0322313	0.00824872	2	-2.87504e-06	2.65867e-07
2	1	0	1	1	432.505	-0.0170493	-0.0172601	0.00845563	2	-2.8249e-06	1.45945e-07
2	1	0	1	1	432.511	-0.002055	-0.00226996	0.00864957	2	-2.77363e-06	1.96342e-08
2	1	0	1	1	432.517	0.0129393	0.0127782	0.00879754	2	-2.72124e-06	1.12417e-07
2	1	0	1	1	432.523	0.0279336	0.0277616	0.00895662	2	-2.668e-06	2.4865e-07
2	1	0	1	1	432.529	0.0430389	0.0428702	0.00914128	2	-2.61381e-06	3.91888e-07
2	1	0	1	1	432.535	0.0580887	0.0579495	0.00920712	2	-2.5587e-06	5.33548e-07
2	1	0	1	1	432.541	0.073083	0.0729301	0.00927346	2	-2.50328e-06	6.76314e-07
2	1	0	1	1	432.547	0.0880773	0.0879141	0.00933141	2	-2.44742e-06	8.20362e-07
2	1	0	1	1	432.552	0.0999061	0.0997192	0.00943712	2	-2.40345e-06	9.41063e-07
2	0	0	0	1	432.553	0.0970738	0.0969666	0.00608483	2	-2.39291e-06	5.90025e-07
2	0	0	0	1	432.559	0.0820795	0.0819616	0.0013848	2	-2.37476e-06	1.13501e-07
2	0	0	0	1	432.565	0.0670853	0.066962	-2.70124e-05	2	-2.37124e-06	1.8088e-09
2	0	0	0	1	432.571	0.052091	0.0519843	-0.000931332	2	-2.3743e-06	4.84147e-08
2	0	0	0	1	432.577	0.0369301	0.036792	-0.00167404	2	-2.38229e-06	6.15915e-08
2	0	0	0	1	432.583	0.0219358	0.0218036	-0.00221843	2	-2.39402e-06	4.83697e-08
2	0	0	0	1	432.589	0.00694157	0.00678889	-0.00272893	2	-2.40892e-06	1.85264e-08
2	0	0	0	1	432.595	-0.00805271	-0.00824468	-0.00318954	2	-2.42677e-06	2.62967e-08
2	0	0	0	1	432.601	-0.023047	-0.0232047	-0.00359804	2	-2.4472e-06	8.34914e-08
2	0	0	0	1	432.607	-0.0380413	-0.0381944	-0.00399836	2	-2.47003e-06	1.52715e-07
2	0	0	0	1	432.613	-0.0530356	-0.0532335	-0.0043866	2	-2.49523e-06	2.33514e-07
2	0	0	0	1	432.619	-0.0680299	-0.0681937	-0.0047312	2	-2.52261e-06	3.22638e-07
2	0	0	0	1	432.625	-0.0830241	-0.0832002	-0.00508302	2	-2.5521e-06	4.22908e-07
2	0	0	0	1	432.631	-0.0980184	-0.098164	-0.00542102	2	-2.58362e-06	5.32149e-07
2	0	0	0	1	432.637	-0.113013	-0.113157	-0.00573962	2	-2.61716e-06	6.49478e-07
2	0	0	0	1	432.643	-0.128007	-0.128176	-0.00609211	2	-2.6527e-06	7.80861e-07
2	0	0	0	1	432.649	-0.143001	-0.143178	-0.00641834	2	-2.69025e-06	9.18966e-07
2	0	0	0	1	432.655	-0.157996	-0.158178	-0.00673956	2	-2.72974e-06	1.06605e-06
2	0	0	0	1	432.661	-0.17299	-0.173181	-0.00707521	2	-2.77119e-06	1.22529e-06
2	0	0	0	1	432.667	-0.187984	-0.188171	-0.00741383	2	-2.81466e-06	1.39507e-06
2	0	0	0	1	432.673	-0.202978	-0.203165	-0.00778246	2	-2.86024e-06	1.58112e-06
2	0	0	0	1	432.679	-0.217973	-0.218164	-0.00815275	2	-2.90805e-06	1.77863e-06
2	0	0	0	1	432.685	-0.232967	-0.233165	-0.00851523	2	-2.95808e-06	1.98545e-06
2	0	0	0	1	432.691	-0.247961	-0.248148	-0.0088875	2	-3.01029e-06	2.20542e-06
2	0	0	0	1	432.697	-0.262956	-0.26312	-0.00923599	2	-3.0647e-06	2.43017e-06
2	0	0	0	1	432.703	-0.27795	-0.278119	-0.0095652	2	-3.12119e-06	2.66026e-06
2	0	0	0	1	432.709	-0.292944	-0.293112	-0.00990056	2	-3.17962e-06	2.90197e-06
2	0	0	0	1	432.715	-0.307938	-0.308127	-0.0102159	2	-3.24007e-06	3.14779e-06
2	0	0	0	1	432.721	-0.322933	-0.323114	-0.0104976	2	-3.30232e-06	3.39191e-06
2	0	0	0	1	432.727	-0.337927	-0.338126	-0.010807	2	-3.36627e-06	3.65411e-06
2	0	0	0	1	432.733	-0.352921	-0.353159	-0.01112	2	-3.4321e-06	3.92712e-06
2	0	0	0	1	432.739	-0.367916	-0.368116	-0.0113681	2	-3.49956e-06	4.18478e-06
2	0	0	0	1	432.745	-0.38291	-0.383137	-0.0116934	2	-3.56882e-06	4.48016e-06
2	0	0	0	1	432.751	-0.398071	-0.398299	-0.0120857	2	-3.64011e-06	4.81371e-06
2	0	0	0	1	432.757	-0.413065	-0.413277	-0.012367	2	-3.71338e-06	5.11098e-06
2	0	0	0	1	432.763	-0.428059	-0.428273	-0.0127277	2	-3.7888e-06	5.45094e-06
2	0	0	0	1	432.769	-0.443054	-0.443264	-0.01311	2	-3.86625e-06	5.81119e-06
2	0	0	0	1	432.775	-0.458048	-0.458237	-0.013492	2	-3.94604e-06	6.18254e-06
2	0	0	0	1	432.781	-0.473042	-0.473263	-0.0139731	2	-4.02857e-06	6.61295e-06
2	0	0	0	1	432.787	-0.488036	-0.488247	-0.0144457	2	-4.11393e-06	7.05309e-06
2	0	0	0	1	432.793	-0.503031	-0.503262	-0.0149522	2	-4.20219e-06	7.52487e-06
2	0	0	0	1	432.799	-0.518025	-0.518241	-0.015521	2	-4.29362e-06	8.04362e-06
2	0	0	0	1	432.805	-0.533019	-0.533225	-0.0160885	2	-4.38848e-06	8.5788e-06
2	0	0	0	1	432.811	-0.548014	-0.548227	-0.0166923	2	-4.48693e-06	9.15117e-06
2	0	0	0	1	432.817	-0.563008	-0.563221	-0.0174084	2	-4.58931e-06	9.80476e-06
2	0	0	0	1	432.823	-0.578002	-0.578225	-0.0181284	2	-4.69613e-06	1.04823e-05
2	0	0	0	1	432.829	-0.592996	-0.593221	-0.018912	2	-4.80738e-06	1.1219e-05
2	0	0	1	1	432.832	-0.60016	-0.600378	-0.0192868	2	-4.86282e-06	1.15794e-05