File: TAP_Report/Data/Res_SHU/100 uM RS 10mM SHU_06_CV_C01_2.mpt
EC-Lab ASCII FILE
Nb header lines : 53

Cyclic Voltammetry

Run on channel : 1 (SN 0696)
User :
Electrode connection : standard
Ewe ctrl range : min = -10.00 V, max = 10.00 V
Ewe,I filtering : 50 kHz
Channel : Grounded
Acquisition started on : 05/17/2017 13:04:41
Saved on :
	File : 100 uM RS 10mM SHU_06_CV_C01.mpr
	Directory : \\userfs\st659\w2k\EC-Lab\Data\ITO Characterisation 17-5-17\
	Host : 144.32.136.43
Device : SP-300 (SN 0182)
Address : USB
EC-Lab for windows v10.44 (software)
Internet server v10.44 (firmware)
Command interpretor v10.44 (firmware)
Electrode material :
Initial state :
Electrolyte :
Comments :
Cable : standard
Electrode surface area : 0.001 cm²
Characteristic mass : 0.001 g
Equivalent Weight : 0.000 g/eq.
Density : 0.000 g/cm3
Ei (V)              0.000
vs.                 Eoc
dE/dt               1000.000
dE/dt unit          mV/s
E1 (V)              0.100
vs.                 Ref
Step percent        50
N                   10
E range min (V)     -10.000
E range max (V)     10.000
I Range             Auto
I Range min         Unset
I Range max         Unset
I Range init        Unset
Bandwidth           8
E2 (V)              -0.600
vs.                 Ref
nc cycles           2
Reverse Scan        1
Ef (V)              0.000
vs.                 Eoc

mode	ox/red	error	control changes	counter inc.	time/s	control/V	Ewe/V	<I>/mA	cycle number	(Q-Qo)/C	P/W
2	1	0	1	1	427.859	-0.60016	-0.600378	-0.014739	2	-4.91075e-06	8.849e-06
2	1	0	1	1	427.871	-0.588265	-0.588503	-0.00964064	2	-5.04399e-06	5.67354e-06
2	1	0	1	1	427.884	-0.57507	-0.575306	-0.00801384	2	-5.15887e-06	4.61042e-06
2	1	0	0	1	427.898	-0.561608	-0.561847	-0.00684667	2	-5.25731e-06	3.84678e-06
2	1	0	0	1	427.911	-0.548413	-0.548624	-0.00595212	2	-5.34097e-06	3.26548e-06
2	1	0	1	1	427.924	-0.535018	-0.535235	-0.0052052	2	-5.41492e-06	2.78601e-06
2	1	0	0	1	427.938	-0.521624	-0.521851	-0.00455942	2	-5.47967e-06	2.37934e-06
2	1	0	0	1	427.951	-0.508429	-0.508656	-0.0040107	2	-5.53558e-06	2.04007e-06
2	1	0	1	1	427.964	-0.495034	-0.495226	-0.00350734	2	-5.58523e-06	1.73693e-06
2	1	0	0	1	427.978	-0.481639	-0.481875	-0.00306184	2	-5.6286e-06	1.47542e-06
2	1	0	0	1	427.991	-0.468444	-0.468664	-0.00265931	2	-5.66568e-06	1.24632e-06
2	1	0	1	1	428.004	-0.455049	-0.455239	-0.00227314	2	-5.69808e-06	1.03482e-06
2	1	0	0	1	428.018	-0.441654	-0.441863	-0.00193564	2	-5.7257e-06	8.55288e-07
2	1	0	0	1	428.031	-0.428459	-0.428669	-0.00161669	2	-5.74851e-06	6.93025e-07
2	1	0	1	1	428.044	-0.415064	-0.415282	-0.00131682	2	-5.76756e-06	5.46852e-07
2	1	0	0	1	428.073	-0.3866	-0.386788	-0.000768968	2	-5.79842e-06	2.97427e-07
2	1	0	0	1	428.101	-0.358019	-0.358207	-0.000220143	2	-5.81922e-06	7.88568e-08
2	1	0	0	1	428.114	-0.344824	-0.345018	-1.19368e-05	2	-5.82048e-06	4.1184e-09
2	1	0	1	1	428.128	-0.331429	-0.331601	0.000201023	2	-5.8189e-06	6.66593e-08
2	1	0	0	1	428.141	-0.318035	-0.318226	0.000383567	2	-5.81468e-06	1.22061e-07
2	1	0	0	1	428.154	-0.30484	-0.305015	0.000574907	2	-5.80812e-06	1.75356e-07
2	1	0	1	1	428.168	-0.291445	-0.291592	0.000750721	2	-5.79895e-06	2.18904e-07
2	1	0	0	1	428.181	-0.27805	-0.278188	0.000923476	2	-5.78744e-06	2.569e-07
2	1	0	0	1	428.194	-0.264855	-0.265025	0.00109214	2	-5.77394e-06	2.89445e-07
2	1	0	1	1	428.208	-0.25146	-0.251626	0.00125753	2	-5.75795e-06	3.16429e-07
2	1	0	0	1	428.221	-0.238065	-0.238232	0.00142359	2	-5.73972e-06	3.39144e-07
2	1	0	0	1	428.234	-0.22487	-0.225062	0.0015921	2	-5.71959e-06	3.58322e-07
2	1	0	1	1	428.248	-0.211409	-0.211556	0.00177778	2	-5.69669e-06	3.76099e-07
2	1	0	1	1	428.261	-0.198214	-0.198359	0.00195441	2	-5.67185e-06	3.87675e-07
2	1	0	0	1	428.274	-0.184819	-0.184991	0.00212519	2	-5.64431e-06	3.93141e-07
2	1	0	1	1	428.288	-0.171424	-0.17161	0.00230847	2	-5.61438e-06	3.96156e-07
2	1	0	1	1	428.301	-0.158229	-0.158385	0.00249336	2	-5.5825e-06	3.94911e-07
2	1	0	0	1	428.314	-0.144834	-0.144987	0.00266524	2	-5.5477e-06	3.86425e-07
2	1	0	1	1	428.328	-0.131439	-0.131578	0.00285779	2	-5.51042e-06	3.76021e-07
2	1	0	1	1	428.341	-0.118244	-0.118357	0.00306038	2	-5.47114e-06	3.62217e-07
2	1	0	0	1	428.354	-0.104849	-0.104974	0.00323461	2	-5.42872e-06	3.39551e-07
2	1	0	1	1	428.368	-0.0914543	-0.0915799	0.00343466	2	-5.38379e-06	3.14546e-07
2	1	0	1	1	428.381	-0.0782593	-0.0784061	0.00360725	2	-5.33711e-06	2.82831e-07
2	1	0	0	1	428.394	-0.0648644	-0.065016	0.00379092	2	-5.28725e-06	2.4647e-07
2	1	0	1	1	428.408	-0.0514695	-0.0516447	0.00396601	2	-5.2351e-06	2.04823e-07
2	1	0	1	1	428.421	-0.0382079	-0.0383262	0.00415536	2	-5.18127e-06	1.59259e-07
2	1	0	0	1	428.434	-0.024813	-0.024933	0.00429505	2	-5.12444e-06	1.07088e-07
2	1	0	0	1	428.448	-0.011618	-0.0117674	0.00444946	2	-5.06651e-06	5.23586e-08
2	1	0	1	1	428.461	0.00177687	0.00164644	0.00459501	2	-5.00566e-06	7.56539e-09
2	1	0	0	1	428.474	0.0151718	0.0150778	0.00471255	2	-4.94306e-06	7.1055e-08
2	1	0	0	1	428.488	0.0283667	0.0282442	0.00481108	2	-4.87996e-06	1.35885e-07
2	1	0	1	1	428.501	0.0417616	0.0416472	0.00489504	2	-4.81465e-06	2.03865e-07
2	1	0	0	1	428.514	0.0551565	0.0550763	0.00496905	2	-4.74831e-06	2.73677e-07
2	1	0	0	1	428.528	0.0683515	0.0682546	0.00500518	2	-4.68225e-06	3.41627e-07
2	1	0	1	1	428.541	0.0817464	0.0816654	0.0050368	2	-4.61468e-06	4.11332e-07
2	1	0	0	1	428.554	0.0951412	0.095034	0.00506698	2	-4.5468e-06	4.81535e-07
2	0	0	1	1	428.561	0.0984733	0.0984043	0.00354982	2	-4.51468e-06	3.49317e-07
2	0	0	0	1	428.575	0.0850784	0.0849072	0.00137471	2	-4.48765e-06	1.16723e-07
2	0	0	1	1	428.588	0.0716835	0.0715065	0.000741523	2	-4.47404e-06	5.30237e-08
2	0	0	1	1	428.601	0.0584886	0.058368	0.000291492	2	-4.4676e-06	1.70138e-08
2	0	0	0	1	428.615	0.0450937	0.044939	-9.90079e-05	2	-4.46668e-06	4.44932e-09
2	0	0	1	1	428.628	0.0316988	0.0315024	-0.000427775	2	-4.47051e-06	1.3476e-08
2	0	0	1	1	428.641	0.0185038	0.0183334	-0.000715897	2	-4.47829e-06	1.31248e-08
2	0	0	0	1	428.655	0.00510893	0.00492426	-0.000986109	2	-4.49001e-06	4.85585e-09
2	0	0	1	1	428.668	-0.00828596	-0.0085149	-0.00124405	2	-4.50527e-06	1.0593e-08
2	0	0	1	1	428.681	-0.0214809	-0.0217007	-0.00147144	2	-4.5235e-06	3.19312e-08
2	0	0	0	1	428.695	-0.0348758	-0.0350915	-0.00170619	2	-4.5451e-06	5.98727e-08
2	0	0	0	1	428.708	-0.0481374	-0.0483818	-0.00192886	2	-4.56939e-06	9.33219e-08
2	0	0	1	1	428.721	-0.0615323	-0.0617641	-0.00213714	2	-4.59689e-06	1.31998e-07
2	0	0	0	1	428.735	-0.0749272	-0.0751717	-0.00234288	2	-4.62712e-06	1.76118e-07
2	0	0	0	1	428.748	-0.0881222	-0.0883476	-0.00254759	2	-4.6596e-06	2.25074e-07
2	0	0	1	1	428.761	-0.101517	-0.101739	-0.00273684	2	-4.69527e-06	2.78445e-07
2	0	0	0	1	428.775	-0.114912	-0.115115	-0.00293651	2	-4.73353e-06	3.38037e-07
2	0	0	0	1	428.788	-0.128107	-0.128331	-0.00313306	2	-4.7738e-06	4.0207e-07
2	0	0	1	1	428.801	-0.141502	-0.141751	-0.00332165	2	-4.81728e-06	4.70849e-07
2	0	0	0	1	428.815	-0.154897	-0.155123	-0.00351407	2	-4.86329e-06	5.45112e-07
2	0	0	0	1	428.828	-0.168092	-0.16834	-0.00371833	2	-4.91124e-06	6.25943e-07
2	0	0	1	1	428.841	-0.181487	-0.181752	-0.0039221	2	-4.96265e-06	7.12849e-07
2	0	0	0	1	428.855	-0.194882	-0.195114	-0.00413436	2	-5.01686e-06	8.06671e-07
2	0	0	0	1	428.868	-0.208076	-0.208304	-0.0043564	2	-5.07316e-06	9.07457e-07
2	0	0	1	1	428.881	-0.221538	-0.221803	-0.00461332	2	-5.13344e-06	1.02325e-06
2	0	0	1	1	428.894	-0.234733	-0.234975	-0.00479487	2	-5.19568e-06	1.12667e-06
2	0	0	0	1	428.908	-0.248128	-0.248391	-0.0050142	2	-5.26168e-06	1.24548e-06
2	0	0	1	1	428.921	-0.261523	-0.261749	-0.00520357	2	-5.33042e-06	1.36203e-06
2	0	0	1	1	428.934	-0.274718	-0.274953	-0.00540331	2	-5.40075e-06	1.48566e-06
2	0	0	0	1	428.948	-0.288113	-0.288341	-0.00560246	2	-5.47468e-06	1.61542e-06
2	0	0	1	1	428.961	-0.301507	-0.301767	-0.00578899	2	-5.55121e-06	1.74693e-06
2	0	0	1	1	428.974	-0.314702	-0.314949	-0.00596782	2	-5.62899e-06	1.87956e-06
2	0	0	0	1	428.988	-0.328097	-0.328335	-0.00616788	2	-5.71048e-06	2.02513e-06
2	0	0	1	1	429.001	-0.341492	-0.341778	-0.00637373	2	-5.79466e-06	2.1784e-06
2	0	0	1	1	429.014	-0.354687	-0.354953	-0.00657548	2	-5.88032e-06	2.33398e-06
2	0	0	0	1	429.028	-0.368082	-0.368335	-0.00678752	2	-5.97006e-06	2.50008e-06
2	0	0	1	1	429.041	-0.381477	-0.38174	-0.00704545	2	-6.06296e-06	2.68953e-06
2	0	0	1	1	429.054	-0.394716	-0.39499	-0.00730666	2	-6.15784e-06	2.88606e-06
2	0	0	0	1	429.068	-0.408134	-0.408402	-0.0075618	2	-6.25769e-06	3.08825e-06
2	0	0	0	1	429.081	-0.421328	-0.421598	-0.00784513	2	-6.35967e-06	3.30749e-06
2	0	0	1	1	429.094	-0.434723	-0.434995	-0.00816207	2	-6.46716e-06	3.55046e-06
2	0	0	0	1	429.108	-0.448118	-0.448374	-0.00846496	2	-6.57883e-06	3.79547e-06
2	0	0	0	1	429.121	-0.461313	-0.461571	-0.00882186	2	-6.69318e-06	4.07192e-06
2	0	0	1	1	429.134	-0.474708	-0.47498	-0.0091734	2	-6.81404e-06	4.35718e-06
2	0	0	0	1	429.148	-0.488103	-0.488381	-0.00955206	2	-6.93973e-06	4.66504e-06
2	0	0	0	1	429.161	-0.501298	-0.501584	-0.00992532	2	-7.0685e-06	4.97838e-06
2	0	0	1	1	429.204	-0.544681	-0.5449	-0.0113263	2	-7.51507e-06	6.1717e-06
2	0	0	0	1	429.218	-0.558076	-0.558318	-0.0118025	2	-7.6706e-06	6.58955e-06
2	0	0	0	1	429.231	-0.571338	-0.571585	-0.0123582	2	-7.83049e-06	7.06375e-06
2	0	0	1	1	429.244	-0.584733	-0.584964	-0.0128986	2	-8.00004e-06	7.5452e-06
2	0	0	1	1	429.258	-0.597928	-0.598139	-0.0134883	2	-8.17467e-06	8.06785e-06
2	0	0	0	1	429.26	-0.599827	-0.600077	-0.0135807	2	-8.20044e-06	8.14948e-06