File: TAP_Report/Data/Res_SHU/100 uM RS 10mM SHU_02_CV_C01_2.mpt
EC-Lab ASCII FILE
Nb header lines : 53

Cyclic Voltammetry

Run on channel : 1 (SN 0696)
User :
Electrode connection : standard
Ewe ctrl range : min = -10.00 V, max = 10.00 V
Ewe,I filtering : 50 kHz
Channel : Grounded
Acquisition started on : 05/17/2017 13:04:41
Saved on :
	File : 100 uM RS 10mM SHU_02_CV_C01.mpr
	Directory : \\userfs\st659\w2k\EC-Lab\Data\ITO Characterisation 17-5-17\
	Host : 144.32.136.43
Device : SP-300 (SN 0182)
Address : USB
EC-Lab for windows v10.44 (software)
Internet server v10.44 (firmware)
Command interpretor v10.44 (firmware)
Electrode material :
Initial state :
Electrolyte :
Comments :
Cable : standard
Electrode surface area : 0.001 cm²
Characteristic mass : 0.001 g
Equivalent Weight : 0.000 g/eq.
Density : 0.000 g/cm3
Ei (V)              0.000
vs.                 Eoc
dE/dt               50.000
dE/dt unit          mV/s
E1 (V)              0.100
vs.                 Ref
Step percent        50
N                   10
E range min (V)     -10.000
E range max (V)     10.000
I Range             Auto
I Range min         Unset
I Range max         Unset
I Range init        Unset
Bandwidth           8
E2 (V)              -0.600
vs.                 Ref
nc cycles           2
Reverse Scan        1
Ef (V)              0.000
vs.                 Eoc

mode	ox/red	error	control changes	counter inc.	time/s	control/V	Ewe/V	<I>/mA	cycle number	(Q-Qo)/C	P/W
2	1	0	0	1	269.504	-0.60016	-0.600329	-0.00788971	2	-5.2167e-05	4.73642e-06
2	1	0	1	1	269.74	-0.588335	-0.588553	-0.00675795	2	-5.38464e-05	3.97741e-06
2	1	0	0	1	270.007	-0.575003	-0.575217	-0.00609224	2	-5.55403e-05	3.50436e-06
2	1	0	1	1	270.273	-0.561675	-0.561879	-0.00556555	2	-5.70777e-05	3.12717e-06
2	1	0	0	1	270.54	-0.548343	-0.54854	-0.00512842	2	-5.84875e-05	2.81314e-06
2	1	0	1	1	270.806	-0.53502	-0.535211	-0.00475248	2	-5.97887e-05	2.54358e-06
2	1	0	1	1	271.073	-0.521694	-0.521887	-0.00442079	2	-6.0996e-05	2.30715e-06
2	1	0	0	1	271.34	-0.508364	-0.508569	-0.00412081	2	-6.21197e-05	2.09572e-06
2	1	0	1	1	271.606	-0.495034	-0.495228	-0.00384867	2	-6.31673e-05	1.90597e-06
2	1	0	0	1	271.873	-0.481703	-0.481901	-0.0035961	2	-6.41452e-05	1.73297e-06
2	1	0	1	1	272.139	-0.468374	-0.468571	-0.00335838	2	-6.50581e-05	1.57364e-06
2	1	0	0	1	272.406	-0.455049	-0.4552	-0.00313422	2	-6.59092e-05	1.4267e-06
2	1	0	0	1	272.672	-0.441724	-0.441923	-0.00292313	2	-6.67025e-05	1.2918e-06
2	1	0	1	1	272.939	-0.428394	-0.42858	-0.00271995	2	-6.74408e-05	1.16572e-06
2	1	0	0	1	273.206	-0.415064	-0.41526	-0.00252768	2	-6.81264e-05	1.04965e-06
2	1	0	1	1	273.472	-0.401733	-0.401951	-0.0023402	2	-6.87614e-05	9.40645e-07
2	1	0	0	1	273.739	-0.388404	-0.388609	-0.00216314	2	-6.93478e-05	8.40617e-07
2	1	0	0	1	274.005	-0.375083	-0.375271	-0.00199404	2	-6.98876e-05	7.48306e-07
2	1	0	1	1	274.272	-0.361755	-0.36196	-0.00183401	2	-7.03839e-05	6.63837e-07
2	1	0	0	1	274.538	-0.348423	-0.348635	-0.0016788	2	-7.08383e-05	5.85288e-07
2	1	0	1	1	274.805	-0.335095	-0.335279	-0.00153411	2	-7.12531e-05	5.14353e-07
2	1	0	0	1	275.072	-0.321763	-0.321934	-0.00139734	2	-7.16301e-05	4.49851e-07
2	1	0	1	1	275.338	-0.308435	-0.308616	-0.00126847	2	-7.19718e-05	3.9147e-07
2	1	0	1	1	275.605	-0.295113	-0.295275	-0.00114562	2	-7.22797e-05	3.38273e-07
2	1	0	0	1	275.871	-0.281785	-0.28191	-0.00102955	2	-7.2556e-05	2.90241e-07
2	1	0	1	1	276.138	-0.268453	-0.268614	-0.000919432	2	-7.28024e-05	2.46973e-07
2	1	0	0	1	276.404	-0.255124	-0.255299	-0.000815665	2	-7.30202e-05	2.08238e-07
2	1	0	1	1	276.671	-0.241794	-0.241966	-0.000713578	2	-7.32105e-05	1.72661e-07
2	1	0	0	1	276.937	-0.228469	-0.22867	-0.000616573	2	-7.33743e-05	1.40992e-07
2	1	0	0	1	277.204	-0.215144	-0.215337	-0.000517885	2	-7.35119e-05	1.1152e-07
2	1	0	1	1	277.511	-0.199813	-0.199964	-0.000392114	2	-7.3641e-05	7.84088e-08
2	1	0	0	1	277.777	-0.186485	-0.186665	-0.000293989	2	-7.37231e-05	5.48773e-08
2	1	0	1	1	278.044	-0.173153	-0.173331	-0.00019084	2	-7.37782e-05	3.30785e-08
2	1	0	0	1	278.31	-0.159825	-0.159977	-8.71059e-05	2	-7.38056e-05	1.39349e-08
2	1	0	0	1	278.577	-0.146503	-0.14665	1.14947e-05	2	-7.3806e-05	1.6857e-09
2	1	0	1	1	278.843	-0.133175	-0.133307	0.000109591	2	-7.37801e-05	1.46092e-08
2	1	0	0	1	279.11	-0.119843	-0.11998	0.000204659	2	-7.37285e-05	2.4555e-08
2	1	0	1	1	279.377	-0.106514	-0.106622	0.000293059	2	-7.36523e-05	3.12467e-08
2	1	0	0	1	279.643	-0.0931836	-0.0932901	0.000376512	2	-7.35534e-05	3.51249e-08
2	1	0	1	1	279.91	-0.0798587	-0.0799832	0.000443341	2	-7.34342e-05	3.54598e-08
2	1	0	1	1	280.176	-0.0665337	-0.0666714	0.000493886	2	-7.32992e-05	3.2928e-08
2	1	0	0	1	280.443	-0.0532033	-0.0533469	0.00052631	2	-7.31532e-05	2.8077e-08
2	1	0	1	1	280.709	-0.0398739	-0.0400053	0.000541333	2	-7.3001e-05	2.16562e-08
2	1	0	0	1	280.976	-0.0265434	-0.02665	0.000540775	2	-7.28467e-05	1.44117e-08
2	1	0	1	1	281.243	-0.0132141	-0.0133525	0.000530093	2	-7.26941e-05	7.07806e-09
2	1	0	0	1	281.509	0.000124452	-2.95164e-05	0.000516775	2	-7.25447e-05	1.52533e-11
2	1	0	0	1	281.776	0.0134358	0.0133402	0.000500019	2	-7.23994e-05	6.67037e-09
2	1	0	1	1	282.042	0.0267673	0.0266618	0.000484765	2	-7.22582e-05	1.29247e-08
2	1	0	0	1	282.309	0.0400956	0.0400042	0.000470915	2	-7.21211e-05	1.88386e-08
2	1	0	1	1	282.575	0.0534272	0.0533575	0.000459807	2	-7.19871e-05	2.45341e-08
2	1	0	0	1	282.842	0.0667554	0.0666738	0.000451786	2	-7.18557e-05	3.01223e-08
2	1	0	0	1	283.108	0.080077	0.0800027	0.00044667	2	-7.17262e-05	3.57348e-08
2	1	0	1	1	283.375	0.0934052	0.0933158	0.000443603	2	-7.15977e-05	4.13951e-08
2	0	0	0	1	283.542	0.0980701	0.0979667	0.000318648	2	-7.15242e-05	3.12169e-08
2	0	0	0	1	283.809	0.0847485	0.084636	0.000113517	2	-7.14797e-05	9.6076e-09
2	0	0	1	1	284.075	0.0714203	0.0713036	-3.03145e-05	2	-7.14797e-05	2.16153e-09
2	0	0	0	1	284.342	0.0580887	0.0579919	-0.000150652	2	-7.15143e-05	8.73661e-09
2	0	0	1	1	284.609	0.0447605	0.0446403	-0.000255509	2	-7.15787e-05	1.1406e-08
2	0	0	0	1	284.875	0.0314289	0.0312693	-0.000346562	2	-7.16692e-05	1.08368e-08
2	0	0	1	1	285.142	0.0181051	0.0179657	-0.000429411	2	-7.17828e-05	7.71468e-09
2	0	0	1	1	285.408	0.00477906	0.00464524	-0.000505355	2	-7.19174e-05	2.34749e-09
2	0	0	0	1	285.675	-0.00854919	-0.00873346	-0.000576175	2	-7.20718e-05	5.032e-09
2	0	0	1	1	285.941	-0.0218808	-0.0220506	-0.000641471	2	-7.2244e-05	1.41448e-08
2	0	0	0	1	286.208	-0.0352101	-0.0353856	-0.000702467	2	-7.2433e-05	2.48572e-08
2	0	0	1	1	286.475	-0.0485406	-0.0487454	-0.000759856	2	-7.26379e-05	3.70395e-08
2	0	0	0	1	286.741	-0.0618655	-0.0620666	-0.000815711	2	-7.28576e-05	5.06284e-08
2	0	0	0	1	287.008	-0.0751905	-0.075406	-0.000868459	2	-7.30919e-05	6.5487e-08
2	0	0	1	1	287.274	-0.0885209	-0.0886932	-0.000921147	2	-7.33402e-05	8.16995e-08
2	0	0	1	1	287.574	-0.10352	-0.103674	-0.000964806	2	-7.36374e-05	1.00025e-07
2	0	0	1	1	287.841	-0.116841	-0.116987	-0.00101605	2	-7.39142e-05	1.18864e-07
2	0	0	0	1	288.107	-0.130169	-0.130339	-0.0010699	2	-7.42053e-05	1.39449e-07
2	0	0	1	1	288.374	-0.143501	-0.143676	-0.00112789	2	-7.45113e-05	1.62051e-07
2	0	0	0	1	288.64	-0.15683	-0.156984	-0.00119425	2	-7.48337e-05	1.87479e-07
2	0	0	1	1	288.907	-0.170161	-0.170347	-0.00127114	2	-7.51752e-05	2.16535e-07
2	0	0	0	1	289.173	-0.183485	-0.183668	-0.00135953	2	-7.55386e-05	2.49703e-07
2	0	0	0	1	289.44	-0.196811	-0.196968	-0.0014566	2	-7.59268e-05	2.86904e-07
2	0	0	1	1	289.707	-0.21014	-0.210314	-0.00156383	2	-7.63426e-05	3.28896e-07
2	0	0	0	1	289.973	-0.223471	-0.22368	-0.00167952	2	-7.67881e-05	3.75675e-07
2	0	0	1	1	290.24	-0.236801	-0.236995	-0.00180369	2	-7.72655e-05	4.27467e-07
2	0	0	0	1	290.506	-0.25013	-0.250303	-0.0019344	2	-7.7777e-05	4.84185e-07
2	0	0	1	1	290.773	-0.263456	-0.263614	-0.00207374	2	-7.83242e-05	5.46668e-07
2	0	0	1	1	291.039	-0.27678	-0.276939	-0.00221783	2	-7.89095e-05	6.14203e-07
2	0	0	0	1	291.306	-0.290111	-0.290271	-0.00236999	2	-7.95345e-05	6.87937e-07
2	0	0	1	1	291.573	-0.30344	-0.303605	-0.00252906	2	-8.0201e-05	7.67835e-07
2	0	0	0	1	291.839	-0.316772	-0.316972	-0.00269369	2	-8.09106e-05	8.53826e-07
2	0	0	1	1	292.106	-0.3301	-0.330282	-0.00286569	2	-8.1665e-05	9.46484e-07
2	0	0	1	1	292.372	-0.343422	-0.343648	-0.0030459	2	-8.24658e-05	1.04672e-06
2	0	0	0	1	292.639	-0.35675	-0.356958	-0.00323037	2	-8.33159e-05	1.15311e-06
2	0	0	1	1	292.905	-0.370081	-0.370275	-0.00342117	2	-8.4216e-05	1.26677e-06
2	0	0	0	1	293.172	-0.38341	-0.383637	-0.00361447	2	-8.51675e-05	1.38665e-06
2	0	0	1	1	293.439	-0.396741	-0.396986	-0.00381289	2	-8.61713e-05	1.51366e-06
2	0	0	0	1	293.705	-0.410065	-0.410262	-0.00400834	2	-8.7227e-05	1.64447e-06
2	0	0	0	1	293.972	-0.423391	-0.423626	-0.00420646	2	-8.83353e-05	1.78197e-06
2	0	0	1	1	294.238	-0.436719	-0.43695	-0.00439878	2	-8.9496e-05	1.92205e-06
2	0	0	0	1	294.505	-0.450051	-0.450242	-0.00458908	2	-9.0708e-05	2.0662e-06
2	0	0	1	1	294.771	-0.46338	-0.463585	-0.00477565	2	-9.19704e-05	2.21392e-06
2	0	0	0	1	295.038	-0.476711	-0.476933	-0.00495979	2	-9.32822e-05	2.36549e-06
2	0	0	1	1	295.304	-0.490036	-0.490248	-0.00513832	2	-9.46417e-05	2.51905e-06
2	0	0	1	1	295.571	-0.503361	-0.503586	-0.00532121	2	-9.60492e-05	2.67969e-06
2	0	0	0	1	295.838	-0.516691	-0.516919	-0.00550341	2	-9.75059e-05	2.84481e-06
2	0	0	1	1	296.104	-0.53002	-0.530235	-0.00569519	2	-9.90124e-05	3.01979e-06
2	0	0	0	1	296.371	-0.543351	-0.543573	-0.00589489	2	-0.000100571	3.2043e-06
2	0	0	1	1	296.637	-0.55668	-0.556922	-0.0061148	2	-0.000102185	3.40547e-06
2	0	0	0	1	296.904	-0.570006	-0.570251	-0.00635014	2	-0.000103859	3.62117e-06
2	0	0	0	1	297.17	-0.58333	-0.58356	-0.00660928	2	-0.0001056	3.85691e-06
2	0	0	1	1	297.437	-0.596662	-0.596894	-0.00689538	2	-0.000107413	4.11581e-06
2	0	0	0	1	297.5	-0.599827	-0.60002	-0.00697011	2	-0.000107856	4.1822e-06