File: TAP_Report/Data/Res_SHU/100 uM RS 10mM SHU_04_CV_C01_2.mpt
EC-Lab ASCII FILE
Nb header lines : 53

Cyclic Voltammetry

Run on channel : 1 (SN 0696)
User :
Electrode connection : standard
Ewe ctrl range : min = -10.00 V, max = 10.00 V
Ewe,I filtering : 50 kHz
Channel : Grounded
Acquisition started on : 05/17/2017 13:04:41
Saved on :
	File : 100 uM RS 10mM SHU_04_CV_C01.mpr
	Directory : \\userfs\st659\w2k\EC-Lab\Data\ITO Characterisation 17-5-17\
	Host : 144.32.136.43
Device : SP-300 (SN 0182)
Address : USB
EC-Lab for windows v10.44 (software)
Internet server v10.44 (firmware)
Command interpretor v10.44 (firmware)
Electrode material :
Initial state :
Electrolyte :
Comments :
Cable : standard
Electrode surface area : 0.001 cm²
Characteristic mass : 0.001 g
Equivalent Weight : 0.000 g/eq.
Density : 0.000 g/cm3
Ei (V)              0.000
vs.                 Eoc
dE/dt               250.000
dE/dt unit          mV/s
E1 (V)              0.100
vs.                 Ref
Step percent        50
N                   10
E range min (V)     -10.000
E range max (V)     10.000
I Range             Auto
I Range min         Unset
I Range max         Unset
I Range init        Unset
Bandwidth           8
E2 (V)              -0.600
vs.                 Ref
nc cycles           2
Reverse Scan        1
Ef (V)              0.000
vs.                 Eoc

mode	ox/red	error	control changes	counter inc.	time/s	control/V	Ewe/V	<I>/mA	cycle number	(Q-Qo)/C	P/W
2	1	0	0	1	401.17	-0.60016	-0.600417	-0.0102251	2	-1.29362e-05	6.13934e-06
2	1	0	1	1	401.217	-0.588315	-0.588523	-0.00803366	2	-1.3344e-05	4.72799e-06
2	1	0	1	1	401.27	-0.57502	-0.575253	-0.00711036	2	-1.37423e-05	4.09025e-06
2	1	0	0	1	401.324	-0.561658	-0.561881	-0.00639456	2	-1.4099e-05	3.59298e-06
2	1	0	0	1	401.377	-0.548363	-0.548568	-0.00580649	2	-1.442e-05	3.18526e-06
2	1	0	1	1	401.43	-0.535018	-0.535222	-0.0053012	2	-1.47131e-05	2.83732e-06
2	1	0	1	1	401.484	-0.521707	-0.521904	-0.0048629	2	-1.49802e-05	2.53797e-06
2	1	0	0	1	401.537	-0.508362	-0.508589	-0.00446658	2	-1.52262e-05	2.27165e-06
2	1	0	1	1	401.59	-0.495017	-0.495219	-0.00411507	2	-1.54522e-05	2.03786e-06
2	1	0	1	1	401.644	-0.481711	-0.481925	-0.0037883	2	-1.56594e-05	1.82567e-06
2	1	0	0	1	401.697	-0.468361	-0.468555	-0.00348463	2	-1.58506e-05	1.63274e-06
2	1	0	0	1	401.75	-0.455066	-0.455242	-0.00320631	2	-1.60256e-05	1.45965e-06
2	1	0	1	1	401.804	-0.441721	-0.441923	-0.0029476	2	-1.61868e-05	1.30261e-06
2	1	0	1	1	401.857	-0.428409	-0.428615	-0.00269517	2	-1.63338e-05	1.15519e-06
2	1	0	0	1	401.91	-0.415064	-0.415268	-0.00246122	2	-1.64685e-05	1.02207e-06
2	1	0	1	1	401.964	-0.401719	-0.401953	-0.00223985	2	-1.65911e-05	9.00313e-07
2	1	0	1	1	402.017	-0.388408	-0.388631	-0.00203126	2	-1.67016e-05	7.8941e-07
2	1	0	0	1	402.07	-0.375063	-0.37526	-0.00182949	2	-1.68016e-05	6.86536e-07
2	1	0	0	1	402.123	-0.361768	-0.361981	-0.00164368	2	-1.68909e-05	5.94979e-07
2	1	0	1	1	402.177	-0.348406	-0.348597	-0.00145976	2	-1.69708e-05	5.08869e-07
2	1	0	1	1	402.23	-0.335111	-0.335291	-0.00129421	2	-1.7041e-05	4.33937e-07
2	1	0	0	1	402.283	-0.321766	-0.321946	-0.00113119	2	-1.71027e-05	3.64182e-07
2	1	0	1	1	402.337	-0.308422	-0.308609	-0.000978342	2	-1.7156e-05	3.01925e-07
2	1	0	1	1	402.39	-0.29511	-0.295265	-0.000826312	2	-1.7201e-05	2.43981e-07
2	1	0	0	1	402.443	-0.281765	-0.281907	-0.000689539	2	-1.72385e-05	1.94386e-07
2	1	0	0	1	402.497	-0.26847	-0.268646	-0.000552986	2	-1.72686e-05	1.48557e-07
2	1	0	1	1	402.55	-0.255109	-0.255286	-0.00042042	2	-1.72915e-05	1.07327e-07
2	1	0	1	1	402.634	-0.234117	-0.234222	-0.000165622	2	-1.73164e-05	3.87923e-08
2	1	0	1	1	402.687	-0.220822	-0.220912	-3.42676e-05	2	-1.73214e-05	7.57011e-09
2	1	0	0	1	402.741	-0.20746	-0.207556	9.49442e-05	2	-1.73194e-05	1.97062e-08
2	1	0	0	1	402.794	-0.194165	-0.194246	0.000225415	2	-1.73105e-05	4.3786e-08
2	1	0	1	1	402.847	-0.18082	-0.180898	0.000358515	2	-1.72947e-05	6.48549e-08
2	1	0	1	1	402.9	-0.167509	-0.167588	0.000494128	2	-1.72717e-05	8.281e-08
2	1	0	0	1	402.954	-0.154164	-0.154229	0.000630049	2	-1.72414e-05	9.71719e-08
2	1	0	1	1	403.007	-0.140819	-0.140877	0.000767355	2	-1.72038e-05	1.08103e-07
2	1	0	1	1	403.06	-0.127507	-0.127554	0.000904028	2	-1.71589e-05	1.15312e-07
2	1	0	1	1	403.144	-0.106515	-0.10662	0.00107024	2	-1.7074e-05	1.14108e-07
2	1	0	0	1	403.198	-0.0931703	-0.0932822	0.00121304	2	-1.70101e-05	1.13155e-07
2	1	0	0	1	403.251	-0.0798587	-0.0799872	0.00135684	2	-1.69387e-05	1.0853e-07
2	1	0	1	1	403.304	-0.0665138	-0.0666522	0.00149101	2	-1.68597e-05	9.93787e-08
2	1	0	1	1	403.358	-0.0532188	-0.0533695	0.00162483	2	-1.67739e-05	8.67166e-08
2	1	0	0	1	403.411	-0.0398573	-0.0399786	0.00174696	2	-1.66809e-05	6.98409e-08
2	1	0	0	1	403.464	-0.0265623	-0.0266896	0.00184162	2	-1.65824e-05	4.91521e-08
2	1	0	1	1	403.518	-0.0132174	-0.0133646	0.00192306	2	-1.64787e-05	2.57008e-08
2	1	0	0	1	403.571	0.000129721	-1.60072e-05	0.00199355	2	-1.63714e-05	3.1911e-11
2	1	0	0	1	403.624	0.0134391	0.0133441	0.00203521	2	-1.6261e-05	2.7158e-08
2	1	0	1	1	403.678	0.026784	0.0266835	0.00206094	2	-1.61486e-05	5.49932e-08
2	1	0	1	1	403.731	0.0400789	0.0399535	0.00207653	2	-1.60354e-05	8.29646e-08
2	1	0	0	1	403.784	0.0534405	0.0533697	0.00208732	2	-1.59211e-05	1.11399e-07
2	1	0	0	1	403.837	0.0667354	0.0666447	0.00208722	2	-1.58071e-05	1.39102e-07
2	1	0	1	1	403.891	0.0800803	0.0800038	0.00208624	2	-1.56927e-05	1.66907e-07
2	1	0	1	1	403.944	0.0933919	0.0933005	0.0020837	2	-1.55789e-05	1.9441e-07
2	0	0	1	1	403.978	0.0980735	0.0979586	0.00145525	2	-1.55113e-05	1.42554e-07
2	0	0	1	1	404.031	0.0847619	0.084636	0.000948694	2	-1.54531e-05	8.02937e-08
2	0	0	0	1	404.085	0.071417	0.0713066	0.000670728	2	-1.54132e-05	4.78274e-08
2	0	0	1	1	404.138	0.0580721	0.0579751	0.000447597	2	-1.53864e-05	2.59495e-08
2	0	0	1	1	404.191	0.0447771	0.0446626	0.000250647	2	-1.53709e-05	1.11945e-08
2	0	0	0	1	404.245	0.0314156	0.0312641	7.83489e-05	2	-1.53652e-05	2.44951e-09
2	0	0	0	1	404.298	0.0181206	0.0179869	-8.01757e-05	2	-1.53683e-05	1.44211e-09
2	0	0	0	1	404.382	-0.00288801	-0.00314143	-0.000368134	2	-1.53901e-05	1.15647e-09
2	0	0	1	1	404.435	-0.0162329	-0.0164913	-0.000504469	2	-1.54138e-05	8.31936e-09
2	0	0	1	1	404.488	-0.0295279	-0.0297783	-0.000639046	2	-1.54445e-05	1.90297e-08
2	0	0	0	1	404.542	-0.0428728	-0.0431592	-0.000769497	2	-1.54824e-05	3.32109e-08
2	0	0	0	1	404.595	-0.0561844	-0.0564984	-0.000893272	2	-1.5527e-05	5.04685e-08
2	0	0	1	1	404.664	-0.0733651	-0.0736034	-0.00102299	2	-1.55941e-05	7.52952e-08
2	0	0	1	1	404.732	-0.0905379	-0.0906857	-0.00114714	2	-1.56708e-05	1.04029e-07
2	0	0	1	1	404.786	-0.103833	-0.103996	-0.0012662	2	-1.57381e-05	1.3168e-07
2	0	0	0	1	404.839	-0.117178	-0.117336	-0.00137943	2	-1.58117e-05	1.61856e-07
2	0	0	1	1	404.892	-0.1305	-0.130686	-0.00149594	2	-1.58913e-05	1.95499e-07
2	0	0	1	1	404.946	-0.143834	-0.144018	-0.00160629	2	-1.5977e-05	2.31335e-07
2	0	0	0	1	404.999	-0.157179	-0.157358	-0.0017279	2	-1.6069e-05	2.71899e-07
2	0	0	0	1	405.052	-0.170474	-0.170675	-0.0018522	2	-1.61673e-05	3.16124e-07
2	0	0	1	1	405.106	-0.183836	-0.184034	-0.00198794	2	-1.62729e-05	3.65849e-07
2	0	0	1	1	405.159	-0.197131	-0.197319	-0.00212337	2	-1.63853e-05	4.18982e-07
2	0	0	0	1	405.212	-0.210476	-0.210667	-0.00227029	2	-1.65056e-05	4.78275e-07
2	0	0	0	1	405.265	-0.223787	-0.224006	-0.00240802	2	-1.66329e-05	5.39411e-07
2	0	0	1	1	405.319	-0.237132	-0.237323	-0.00254433	2	-1.67681e-05	6.03827e-07
2	0	0	0	1	405.372	-0.250477	-0.250693	-0.0026848	2	-1.69107e-05	6.73063e-07
2	0	0	0	1	405.425	-0.263789	-0.263979	-0.00282615	2	-1.70601e-05	7.46044e-07
2	0	0	1	1	405.479	-0.277133	-0.277325	-0.00296328	2	-1.72175e-05	8.21792e-07
2	0	0	1	1	405.532	-0.290428	-0.29062	-0.00311344	2	-1.73821e-05	9.04829e-07
2	0	0	0	1	405.585	-0.303773	-0.303986	-0.00326647	2	-1.75554e-05	9.92959e-07
2	0	0	0	1	405.639	-0.317085	-0.317293	-0.00343183	2	-1.77366e-05	1.0889e-06
2	0	0	1	1	405.692	-0.33043	-0.330647	-0.00360425	2	-1.79273e-05	1.19173e-06
2	0	0	0	1	405.745	-0.343775	-0.344008	-0.00378753	2	-1.81276e-05	1.30294e-06
2	0	0	0	1	405.799	-0.357086	-0.357313	-0.00397638	2	-1.83372e-05	1.42081e-06
2	0	0	1	1	405.852	-0.370431	-0.370639	-0.00418542	2	-1.85581e-05	1.55128e-06
2	0	0	1	1	405.905	-0.383726	-0.38398	-0.00440849	2	-1.87896e-05	1.69277e-06
2	0	0	0	1	405.959	-0.397088	-0.397348	-0.00463468	2	-1.90339e-05	1.84158e-06
2	0	0	0	1	406.012	-0.410383	-0.410605	-0.0048659	2	-1.92895e-05	1.99796e-06
2	0	0	1	1	406.065	-0.423728	-0.42397	-0.005118	2	-1.95592e-05	2.16988e-06
2	0	0	0	1	406.118	-0.43705	-0.437278	-0.00536943	2	-1.98415e-05	2.34793e-06
2	0	0	0	1	406.172	-0.450384	-0.45059	-0.00563078	2	-2.01379e-05	2.53718e-06
2	0	0	1	1	406.225	-0.463729	-0.463947	-0.00590072	2	-2.04489e-05	2.73762e-06
2	0	0	1	1	406.278	-0.477024	-0.47727	-0.00617961	2	-2.07733e-05	2.94934e-06
2	0	0	0	1	406.332	-0.490385	-0.490627	-0.00645775	2	-2.11139e-05	3.16834e-06
2	0	0	0	1	406.385	-0.50368	-0.503924	-0.00674499	2	-2.14679e-05	3.39896e-06
2	0	0	1	1	406.438	-0.517025	-0.517269	-0.00703062	2	-2.18387e-05	3.63672e-06
2	0	0	1	1	406.492	-0.530337	-0.53058	-0.00734205	2	-2.2224e-05	3.89555e-06
2	0	0	0	1	406.545	-0.543682	-0.543909	-0.00764838	2	-2.26271e-05	4.16002e-06
2	0	0	1	1	406.598	-0.557027	-0.557296	-0.00798132	2	-2.30474e-05	4.44796e-06
2	0	0	1	1	406.652	-0.570338	-0.570598	-0.00834485	2	-2.34846e-05	4.76155e-06
2	0	0	0	1	406.705	-0.583683	-0.583917	-0.00872231	2	-2.3943e-05	5.0931e-06
2	0	0	0	1	406.758	-0.596978	-0.597225	-0.00912359	2	-2.44208e-05	5.44884e-06
2	0	0	1	1	406.77	-0.599827	-0.600085	-0.00923701	2	-2.45258e-05	5.54299e-06