File: TAP_Report/Data/Res_growth/blank_3_2.mpt
EC-Lab ASCII FILE
Nb header lines : 54

Cyclic Voltammetry

Run on channel : 1 (SN 0696)
User :
Electrode connection : standard
Ewe ctrl range : min = -2.50 V, max = 2.50 V
Ewe,I filtering : 50 kHz
Channel : Grounded
Acquisition started on : 01/18/2017 14:24:36
Saved on :
	File : blank_3.mpr
	Directory : H:\EC-Lab\Data\Resazurin Bulk 18-1-17\
	Host : 144.32.136.43
Device : SP-300 (SN 0182)
Address : USB
EC-Lab for windows v10.44 (software)
Internet server v10.44 (firmware)
Command interpretor v10.44 (firmware)
Electrode material :
Initial state :
Electrolyte :
Comments :
Cable : standard
Reference electrode : SCE Saturated Calomel Electrode (0.241 V)
Electrode surface area : 0.001 cm²
Characteristic mass : 0.001 g
Equivalent Weight : 0.000 g/eq.
Density : 0.000 g/cm3
Ei (V)              0.000
vs.                 Eoc
dE/dt               100.000
dE/dt unit          mV/s
E1 (V)              0.000
vs.                 Ref
Step percent        50
N                   10
E range min (V)     -2.500
E range max (V)     2.500
I Range             Auto
I Range min         Unset
I Range max         Unset
I Range init        Unset
Bandwidth           8
E2 (V)              -0.900
vs.                 Ref
nc cycles           2
Reverse Scan        1
Ef (V)              0.000
vs.                 Eoc

mode	ox/red	error	control changes	counter inc.	time/s	control/V	Ewe/V	<I>/mA	cycle number	(Q-Qo)/C	P/W
2	1	0	1	1	17.9986	-0.0106306	-0.0110379	0.0140013	2	-0.00092101	1.54546e-07
2	0	0	1	1	18.1207	-0.00158383	-0.0020535	0.010674	2	-0.000919321	2.1919e-08
2	0	0	0	1	18.2605	-0.0155788	-0.0160628	0.00657976	2	-0.000918206	1.0569e-07
2	0	0	1	1	18.4315	-0.0326727	-0.0331423	0.00389351	2	-0.000917353	1.2904e-07
2	0	0	1	1	18.5715	-0.0466677	-0.0471457	0.0025313	2	-0.000916909	1.1934e-07
2	0	0	1	1	18.7115	-0.0606627	-0.0611371	0.00146656	2	-0.000916633	8.96613e-08
2	0	0	0	1	18.8513	-0.0746577	-0.0751466	0.00059036	2	-0.000916492	4.43636e-08
2	0	0	0	1	18.9913	-0.0886527	-0.0891306	-0.000219671	2	-0.000916468	1.95794e-08
2	0	0	0	1	19.1313	-0.102648	-0.103125	-0.000946437	2	-0.000916551	9.76014e-08
2	0	0	0	1	19.2713	-0.116643	-0.117141	-0.00171709	2	-0.000916739	2.01141e-07
2	0	0	1	1	19.4111	-0.130638	-0.131126	-0.00249033	2	-0.000917033	3.26546e-07
2	0	0	1	1	19.5511	-0.144633	-0.145141	-0.00335793	2	-0.000917443	4.87373e-07
2	0	0	1	1	19.6911	-0.158628	-0.159146	-0.00432542	2	-0.00091798	6.88372e-07
2	0	0	1	1	19.8311	-0.172623	-0.173133	-0.00545129	2	-0.000918665	9.43798e-07
2	0	0	0	1	19.9709	-0.186618	-0.187128	-0.00680169	2	-0.000919521	1.27278e-06
2	0	0	0	1	20.1109	-0.200613	-0.201139	-0.0084114	2	-0.000920585	1.69186e-06
2	0	0	0	1	20.2664	-0.216157	-0.216659	-0.0103846	2	-0.000922056	2.24992e-06
2	0	0	1	1	20.4219	-0.231702	-0.232197	-0.0128674	2	-0.000923887	2.98776e-06
2	0	0	0	1	20.5617	-0.245697	-0.246193	-0.0155661	2	-0.000925913	3.83225e-06
2	0	0	0	1	20.7017	-0.259692	-0.260177	-0.018581	2	-0.000928339	4.83435e-06
2	0	0	0	1	20.8417	-0.273687	-0.274191	-0.0217017	2	-0.000931193	5.95042e-06
2	0	0	0	1	20.9817	-0.287682	-0.288155	-0.024851	2	-0.000934488	7.16095e-06
2	0	0	1	1	21.1215	-0.301677	-0.302162	-0.0281091	2	-0.000938228	8.49352e-06
2	0	0	1	1	21.2615	-0.315672	-0.316176	-0.0313261	2	-0.000942425	9.90457e-06
2	0	0	1	1	21.4015	-0.329667	-0.330151	-0.0346052	2	-0.000947076	1.14249e-05
2	0	0	1	1	21.5415	-0.343662	-0.34415	-0.0379586	2	-0.000952189	1.30635e-05
2	0	0	0	1	21.6813	-0.357657	-0.358154	-0.0413599	2	-0.000957769	1.48132e-05
2	0	0	0	1	21.8213	-0.371652	-0.372156	-0.0448248	2	-0.000963839	1.66818e-05
2	0	0	0	1	21.9613	-0.385647	-0.386156	-0.0483404	2	-0.000970399	1.86669e-05
2	0	0	0	1	22.1013	-0.399642	-0.400134	-0.0517447	2	-0.000977443	2.07048e-05
2	0	0	1	1	22.2411	-0.413637	-0.414149	-0.055016	2	-0.000984944	2.27848e-05
2	0	0	1	1	22.3811	-0.427632	-0.428147	-0.0579	2	-0.000992887	2.47897e-05
2	0	0	1	1	22.5211	-0.441627	-0.442144	-0.0604983	2	-0.00100122	2.6749e-05
2	0	0	1	1	22.6611	-0.455622	-0.456137	-0.062662	2	-0.00100988	2.85825e-05
2	0	0	0	1	22.8009	-0.469617	-0.470131	-0.0644048	2	-0.0010188	3.02787e-05
2	0	0	0	1	22.9409	-0.483612	-0.484128	-0.0658843	2	-0.00102796	3.18964e-05
2	0	0	0	1	23.0809	-0.497607	-0.498132	-0.0670813	2	-0.00103731	3.34153e-05
2	0	0	0	1	23.2209	-0.511602	-0.512118	-0.0681543	2	-0.00104681	3.49031e-05
2	0	0	1	1	23.3607	-0.525597	-0.526113	-0.0690332	2	-0.00105643	3.63193e-05
2	0	0	1	1	23.5007	-0.539592	-0.540127	-0.0697942	2	-0.00106618	3.76977e-05
2	0	0	1	1	23.6407	-0.553587	-0.55412	-0.0705608	2	-0.00107605	3.90991e-05
2	0	0	1	1	23.7807	-0.567582	-0.568113	-0.0713416	2	-0.00108602	4.05301e-05
2	0	0	0	1	23.9205	-0.581577	-0.582103	-0.0720505	2	-0.00109607	4.19408e-05
2	0	0	0	1	24.0605	-0.595572	-0.596072	-0.072772	2	-0.00110625	4.33773e-05
2	0	0	0	1	24.2005	-0.609567	-0.610068	-0.0735795	2	-0.00111653	4.48885e-05
2	0	0	0	1	24.3405	-0.623562	-0.624088	-0.0743519	2	-0.00112692	4.64022e-05
2	0	0	1	1	24.4803	-0.637557	-0.638088	-0.0752923	2	-0.00113742	4.80431e-05
2	0	0	1	1	24.6203	-0.651552	-0.652085	-0.0763178	2	-0.00114806	4.97657e-05
2	0	0	1	1	24.7603	-0.665547	-0.66608	-0.0773421	2	-0.00115885	5.15161e-05
2	0	0	1	1	24.9003	-0.679542	-0.680072	-0.0786687	2	-0.0011698	5.35004e-05
2	0	0	0	1	25.0401	-0.693537	-0.694054	-0.0800737	2	-0.00118093	5.55755e-05
2	0	0	0	1	25.1801	-0.707532	-0.708058	-0.0817501	2	-0.00119229	5.78838e-05
2	0	0	0	1	25.3201	-0.721527	-0.72205	-0.0836994	2	-0.0012039	6.04351e-05
2	0	0	0	1	25.4601	-0.735522	-0.736033	-0.0860585	2	-0.00121581	6.33419e-05
2	0	0	1	1	25.5999	-0.749517	-0.750023	-0.0889089	2	-0.00122807	6.66837e-05
2	0	0	1	1	25.7399	-0.763512	-0.764034	-0.0924066	2	-0.00124079	7.06018e-05
2	0	0	1	1	25.8799	-0.777507	-0.778018	-0.0967107	2	-0.00125405	7.52427e-05
2	0	0	1	1	26.0199	-0.791502	-0.792016	-0.102115	2	-0.00126799	8.08765e-05
2	0	0	1	1	26.1907	-0.808595	-0.809034	-0.109927	2	-0.00128613	8.89346e-05
2	0	0	1	1	26.3307	-0.82259	-0.823054	-0.118452	2	-0.00130219	9.74927e-05
2	0	0	1	1	26.4707	-0.836585	-0.837028	-0.128932	2	-0.00131958	0.00010792
2	0	0	1	1	26.6106	-0.850583	-0.851031	-0.141476	2	-0.00133856	0.000120401
2	0	0	0	1	26.7505	-0.864575	-0.865025	-0.1567	2	-0.00135949	0.000135549
2	0	0	0	1	26.8905	-0.87857	-0.879008	-0.174705	2	-0.00138275	0.000153567
2	0	0	0	1	27.0305	-0.892565	-0.893006	-0.196342	2	-0.00140878	0.000175335
2	1	0	0	0	27.1509	-0.895364	-0.895808	-0.195021	2	-0.00143313	0.000174702
2	1	0	0	0	27.2909	-0.881369	-0.881786	-0.166478	2	-0.00145824	0.000146798
2	1	0	0	0	27.4309	-0.867374	-0.867806	-0.143717	2	-0.00147981	0.000124718
2	1	0	0	0	27.5709	-0.853379	-0.853822	-0.124833	2	-0.00149847	0.000106585
2	1	0	1	0	27.7107	-0.839384	-0.839839	-0.109068	2	-0.00151468	9.15996e-05
2	1	0	1	0	27.8507	-0.825389	-0.825839	-0.0956947	2	-0.00152888	7.90285e-05
2	1	0	1	0	27.9907	-0.811394	-0.811841	-0.0846061	2	-0.00154138	6.86867e-05
2	1	0	1	0	28.1307	-0.797399	-0.797842	-0.0752107	2	-0.00155245	6.00063e-05
2	1	0	0	0	28.2705	-0.783404	-0.78387	-0.0674785	2	-0.00156231	5.28943e-05
2	1	0	0	0	28.4105	-0.769409	-0.769859	-0.0609348	2	-0.00157119	4.69112e-05
2	1	0	0	0	28.5505	-0.755414	-0.755873	-0.0555694	2	-0.00157924	4.20034e-05
2	1	0	0	0	28.6905	-0.741419	-0.74188	-0.0512112	2	-0.00158661	3.79925e-05
2	1	0	1	0	28.8303	-0.727424	-0.727873	-0.047529	2	-0.0015934	3.4595e-05
2	1	0	0	0	29.0013	-0.710331	-0.710755	-0.04364	2	-0.0016011	3.10174e-05
2	1	0	0	0	29.1413	-0.696336	-0.696771	-0.0412585	2	-0.001607	2.87477e-05
2	1	0	0	0	29.2812	-0.682334	-0.682767	-0.0392083	2	-0.0016126	2.67701e-05
2	1	0	1	0	29.4211	-0.668346	-0.668805	-0.0375459	2	-0.00161793	2.51109e-05
2	1	0	1	0	29.5611	-0.654351	-0.654808	-0.0360104	2	-0.00162304	2.35799e-05
2	1	0	1	0	29.7011	-0.640356	-0.640782	-0.0346508	2	-0.00162795	2.22037e-05
2	1	0	1	0	29.841	-0.626354	-0.626806	-0.0333675	2	-0.00163267	2.09149e-05
2	1	0	0	0	29.9809	-0.612366	-0.612789	-0.0321321	2	-0.00163722	1.96902e-05
2	1	0	0	0	30.1209	-0.598371	-0.598807	-0.0309699	2	-0.00164161	1.8545e-05
2	1	0	0	0	30.2609	-0.584376	-0.584794	-0.0297974	2	-0.00164583	1.74254e-05
2	1	0	0	0	30.4008	-0.570371	-0.570802	-0.028516	2	-0.00164987	1.6277e-05
2	1	0	1	0	30.5407	-0.556386	-0.556817	-0.027295	2	-0.00165375	1.51983e-05
2	1	0	1	0	30.6807	-0.542391	-0.542837	-0.0260194	2	-0.00165745	1.41243e-05
2	1	0	1	0	30.8207	-0.528396	-0.528829	-0.0247626	2	-0.00166097	1.30952e-05
2	1	0	0	0	30.9605	-0.514401	-0.514843	-0.0234062	2	-0.0016643	1.20505e-05
2	1	0	0	0	31.1005	-0.500406	-0.500839	-0.0219881	2	-0.00166744	1.10125e-05
2	1	0	0	0	31.2405	-0.486411	-0.486845	-0.0204963	2	-0.00167037	9.97854e-06
2	1	0	0	0	31.3805	-0.472416	-0.472848	-0.0189351	2	-0.0016731	8.95345e-06
2	1	0	0	0	31.5204	-0.458412	-0.458852	-0.0171992	2	-0.0016756	7.89187e-06
2	1	0	1	0	31.6603	-0.444426	-0.444852	-0.0155011	2	-0.00167785	6.89572e-06
2	1	0	1	0	31.8003	-0.430431	-0.430862	-0.013652	2	-0.00167986	5.88214e-06
2	1	0	1	0	31.9403	-0.416436	-0.416853	-0.0117065	2	-0.0016816	4.8799e-06
2	1	0	1	0	32.0802	-0.402431	-0.402853	-0.00967525	2	-0.00168306	3.89771e-06
2	1	0	0	0	32.2201	-0.388446	-0.388888	-0.00776053	2	-0.00168425	3.01797e-06
2	1	0	0	0	32.3601	-0.374451	-0.374883	-0.00578306	2	-0.00168516	2.16797e-06
2	1	0	0	0	32.5156	-0.358906	-0.359324	-0.00359224	2	-0.00168584	1.29078e-06
2	1	0	0	0	32.6709	-0.343362	-0.343767	-0.00128823	2	-0.0016862	4.42851e-07
2	1	0	0	0	32.8109	-0.329367	-0.329771	0.000578633	2	-0.00168625	1.90817e-07
2	1	0	0	0	32.9509	-0.315372	-0.31578	0.00248314	2	-0.00168603	7.84127e-07
2	1	0	0	0	33.0909	-0.301377	-0.301772	0.0044585	2	-0.00168555	1.34545e-06
2	1	0	1	0	33.2307	-0.287382	-0.28776	0.00655282	2	-0.00168478	1.88564e-06
2	1	0	1	0	33.3707	-0.273387	-0.273772	0.00879034	2	-0.00168371	2.40655e-06
2	1	0	0	0	33.5417	-0.256293	-0.256701	0.0116126	2	-0.00168195	2.98098e-06
2	1	0	0	0	33.6817	-0.242298	-0.24273	0.0143301	2	-0.00168011	3.47834e-06
2	1	0	1	0	33.8215	-0.228303	-0.228737	0.0171418	2	-0.00167787	3.92097e-06
2	1	0	1	0	33.9615	-0.214308	-0.214716	0.0199903	2	-0.00167523	4.29224e-06
2	1	0	1	0	34.1015	-0.200313	-0.200724	0.0227647	2	-0.0016722	4.56941e-06
2	1	0	1	0	34.2415	-0.186318	-0.186736	0.0253381	2	-0.00166879	4.73152e-06
2	1	0	0	0	34.3813	-0.172323	-0.172743	0.0274712	2	-0.00166506	4.74547e-06
2	1	0	0	0	34.5213	-0.158328	-0.158727	0.0289728	2	-0.00166106	4.59877e-06
2	1	0	0	0	34.6613	-0.144333	-0.144738	0.0296596	2	-0.0016569	4.29287e-06
2	1	0	0	0	34.8013	-0.130338	-0.130733	0.0294101	2	-0.00165272	3.84486e-06
2	1	0	1	0	34.9411	-0.116343	-0.116749	0.0283199	2	-0.00164864	3.30631e-06
2	1	0	1	0	35.0811	-0.102348	-0.102742	0.0265873	2	-0.00164475	2.73163e-06
2	1	0	1	0	35.2211	-0.0883528	-0.0887632	0.0245767	2	-0.00164113	2.18151e-06
2	1	0	1	0	35.3611	-0.0743578	-0.0747651	0.0225515	2	-0.00163779	1.68607e-06
2	1	0	0	0	35.5009	-0.0603628	-0.0607515	0.0206969	2	-0.00163474	1.25737e-06
2	1	0	0	0	35.6409	-0.0463678	-0.0467769	0.0191427	2	-0.00163191	8.95439e-07
2	1	0	0	0	35.7809	-0.0323728	-0.0327676	0.0178773	2	-0.00162929	5.85796e-07
2	1	0	0	0	35.9209	-0.0183778	-0.0187707	0.0169753	2	-0.00162682	3.18638e-07
2	1	0	1	0	35.9967	-0.0107805	-0.0111639	0.0166033	2	-0.00162553	1.85357e-07