File: TAP_Report/Data/Res_growth/blank_2_2.mpt
EC-Lab ASCII FILE
Nb header lines : 54

Cyclic Voltammetry

Run on channel : 1 (SN 0696)
User :
Electrode connection : standard
Ewe ctrl range : min = -2.50 V, max = 2.50 V
Ewe,I filtering : 50 kHz
Channel : Grounded
Acquisition started on : 01/18/2017 14:21:07
Saved on :
	File : blank_2.mpr
	Directory : H:\EC-Lab\Data\Resazurin Bulk 18-1-17\
	Host : 144.32.136.43
Device : SP-300 (SN 0182)
Address : USB
EC-Lab for windows v10.44 (software)
Internet server v10.44 (firmware)
Command interpretor v10.44 (firmware)
Electrode material :
Initial state :
Electrolyte :
Comments :
Cable : standard
Reference electrode : SCE Saturated Calomel Electrode (0.241 V)
Electrode surface area : 0.001 cm²
Characteristic mass : 0.001 g
Equivalent Weight : 0.000 g/eq.
Density : 0.000 g/cm3
Ei (V)              0.000
vs.                 Eoc
dE/dt               100.000
dE/dt unit          mV/s
E1 (V)              0.000
vs.                 Ref
Step percent        50
N                   10
E range min (V)     -2.500
E range max (V)     2.500
I Range             Auto
I Range min         Unset
I Range max         Unset
I Range init        Unset
Bandwidth           8
E2 (V)              -0.900
vs.                 Ref
nc cycles           2
Reverse Scan        1
Ef (V)              0.000
vs.                 Eoc

mode	ox/red	error	control changes	counter inc.	time/s	control/V	Ewe/V	<I>/mA	cycle number	(Q-Qo)/C	P/W
2	1	0	1	1	17.9956	-0.0136295	-0.0140178	0.0139395	2	-0.00104873	1.95402e-07
2	1	0	0	1	18.1286	-0.000334273	-0.000720595	0.0136016	2	-0.00104685	9.80121e-09
2	0	0	1	1	18.2577	-0.0125799	-0.0130345	0.00685817	2	-0.00104574	8.93927e-08
2	0	0	0	1	18.4275	-0.0295738	-0.0300084	0.00391247	2	-0.00104484	1.17407e-07
2	0	0	0	1	18.5675	-0.0435688	-0.0440144	0.0024414	2	-0.0010444	1.07457e-07
2	0	0	0	1	18.7075	-0.0575638	-0.0580048	0.00130262	2	-0.00104415	7.55585e-08
2	0	0	1	1	18.8473	-0.0715588	-0.0720051	0.000343786	2	-0.00104404	2.47543e-08
2	0	0	1	1	18.9873	-0.0855538	-0.0859888	-0.000477821	2	-0.00104405	4.10872e-08
2	0	0	1	1	19.1273	-0.0995488	-0.100008	-0.00125927	2	-0.00104417	1.25936e-07
2	0	0	1	1	19.2673	-0.113544	-0.114017	-0.00203249	2	-0.0010444	2.31739e-07
2	0	0	0	1	19.4071	-0.127539	-0.127991	-0.00282407	2	-0.00104474	3.61456e-07
2	0	0	0	1	19.5471	-0.141534	-0.141984	-0.00368398	2	-0.0010452	5.23064e-07
2	0	0	0	1	19.6871	-0.155529	-0.156009	-0.00467694	2	-0.00104578	7.29644e-07
2	0	0	0	1	19.8271	-0.169524	-0.170008	-0.00580636	2	-0.00104651	9.87129e-07
2	0	0	1	1	19.9669	-0.183519	-0.184006	-0.00715859	2	-0.00104742	1.31722e-06
2	0	0	1	1	20.1069	-0.197514	-0.198008	-0.00876426	2	-0.00104853	1.73539e-06
2	0	0	0	1	20.2779	-0.214608	-0.21509	-0.0108715	2	-0.00105022	2.33835e-06
2	0	0	0	1	20.4179	-0.228603	-0.229088	-0.0132146	2	-0.00105194	3.02729e-06
2	0	0	1	1	20.5577	-0.242598	-0.243075	-0.0157428	2	-0.00105399	3.82668e-06
2	0	0	1	1	20.6977	-0.256593	-0.257071	-0.0184217	2	-0.00105642	4.7357e-06
2	0	0	1	1	20.8377	-0.270588	-0.271078	-0.0211441	2	-0.00105922	5.7317e-06
2	0	0	1	1	20.9777	-0.284583	-0.285063	-0.0238912	2	-0.0010624	6.81052e-06
2	0	0	0	1	21.1175	-0.298578	-0.299043	-0.0267531	2	-0.00106598	8.00033e-06
2	0	0	0	1	21.2575	-0.312573	-0.313061	-0.0297293	2	-0.00106996	9.30708e-06
2	0	0	0	1	21.3975	-0.326568	-0.327064	-0.0327628	2	-0.00107437	1.07155e-05
2	0	0	0	1	21.5375	-0.340563	-0.341037	-0.0360274	2	-0.00107922	1.22867e-05
2	0	0	1	1	21.6773	-0.354558	-0.355047	-0.0393401	2	-0.00108452	1.39676e-05
2	0	0	1	1	21.8173	-0.368553	-0.369038	-0.042702	2	-0.0010903	1.57586e-05
2	0	0	1	1	21.9573	-0.382548	-0.383061	-0.0462844	2	-0.00109656	1.77297e-05
2	0	0	1	1	22.0973	-0.396543	-0.397042	-0.0498073	2	-0.00110332	1.97756e-05
2	0	0	0	1	22.2371	-0.410538	-0.411035	-0.0532405	2	-0.00111056	2.18837e-05
2	0	0	0	1	22.3771	-0.424533	-0.425042	-0.0565375	2	-0.00111828	2.40308e-05
2	0	0	0	1	22.5171	-0.438528	-0.439036	-0.0595542	2	-0.00112644	2.61465e-05
2	0	0	0	1	22.6571	-0.452523	-0.453051	-0.0622907	2	-0.001135	2.82209e-05
2	0	0	1	1	22.7969	-0.466518	-0.467039	-0.0647237	2	-0.00114392	3.02285e-05
2	0	0	1	1	22.9369	-0.480513	-0.481014	-0.0668779	2	-0.00115317	3.21692e-05
2	0	0	1	1	23.0769	-0.494508	-0.49501	-0.0687663	2	-0.0011627	3.404e-05
2	0	0	1	1	23.2169	-0.508503	-0.509014	-0.0705317	2	-0.00117248	3.59017e-05
2	0	0	0	1	23.3567	-0.522498	-0.522999	-0.0721746	2	-0.00118249	3.77472e-05
2	0	0	0	1	23.4967	-0.536493	-0.536999	-0.073711	2	-0.00119273	3.95828e-05
2	0	0	0	1	23.6367	-0.550488	-0.551004	-0.0752412	2	-0.0012032	4.14582e-05
2	0	0	0	1	23.7767	-0.564483	-0.564986	-0.0767583	2	-0.00121387	4.33673e-05
2	0	0	1	1	23.9165	-0.578478	-0.578987	-0.0782901	2	-0.00122474	4.5329e-05
2	0	0	1	1	24.0565	-0.592473	-0.592973	-0.079846	2	-0.00123584	4.73465e-05
2	0	0	1	1	24.1965	-0.606468	-0.606969	-0.0814324	2	-0.00124716	4.94269e-05
2	0	0	1	1	24.3365	-0.620463	-0.620979	-0.0831571	2	-0.00125871	5.16388e-05
2	0	0	0	1	24.4763	-0.634458	-0.634961	-0.0850512	2	-0.0012705	5.40042e-05
2	0	0	0	1	24.6163	-0.648453	-0.648966	-0.087084	2	-0.00128258	5.65146e-05
2	0	0	0	1	24.7563	-0.662448	-0.662949	-0.0893356	2	-0.00129496	5.92249e-05
2	0	0	0	1	24.8963	-0.676443	-0.676935	-0.0917584	2	-0.00130766	6.21145e-05
2	0	0	1	1	25.0361	-0.690438	-0.690929	-0.0943548	2	-0.0013207	6.51924e-05
2	0	0	1	1	25.1761	-0.704433	-0.704948	-0.097199	2	-0.00133414	6.85203e-05
2	0	0	1	1	25.3161	-0.718428	-0.718924	-0.100218	2	-0.00134799	7.2049e-05
2	0	0	0	1	25.4871	-0.735522	-0.735955	-0.103644	2	-0.00136549	7.62773e-05
2	0	0	1	1	25.6269	-0.749517	-0.749956	-0.10748	2	-0.00138034	8.06053e-05
2	0	0	1	1	25.7669	-0.763512	-0.763925	-0.111683	2	-0.00139579	8.53173e-05
2	0	0	1	1	25.9069	-0.777507	-0.777927	-0.116705	2	-0.00141188	9.07878e-05
2	0	0	1	1	26.0469	-0.791502	-0.791921	-0.122642	2	-0.00142874	9.7123e-05
2	0	0	0	1	26.1867	-0.805497	-0.805916	-0.12966	2	-0.00144648	0.000104495
2	0	0	0	1	26.3267	-0.819492	-0.819892	-0.137969	2	-0.0014653	0.00011312
2	0	0	0	1	26.4667	-0.833487	-0.833925	-0.147856	2	-0.0014854	0.000123301
2	0	0	0	1	26.6067	-0.847482	-0.847907	-0.159757	2	-0.00150702	0.000135459
2	0	0	1	1	26.7465	-0.861477	-0.861897	-0.173777	2	-0.00153041	0.000149778
2	0	0	1	1	26.8865	-0.875472	-0.875891	-0.190561	2	-0.00155599	0.000166911
2	0	0	1	1	27.0265	-0.889467	-0.889875	-0.210646	2	-0.00158416	0.000187449
2	1	0	0	0	27.1479	-0.898363	-0.898779	-0.22193	2	-0.00161093	0.000199466
2	1	0	0	0	27.2879	-0.884368	-0.884768	-0.191495	2	-0.0016396	0.000169429
2	1	0	0	0	27.4279	-0.870373	-0.870788	-0.168173	2	-0.00166461	0.000146443
2	1	0	0	0	27.5679	-0.856378	-0.856794	-0.148866	2	-0.00168665	0.000127547
2	1	0	1	0	27.7077	-0.842383	-0.842806	-0.132711	2	-0.00170618	0.00011185
2	1	0	1	0	27.8477	-0.828388	-0.828816	-0.119173	2	-0.00172367	9.87729e-05
2	1	0	1	0	27.9877	-0.814393	-0.814806	-0.107527	2	-0.0017394	8.76135e-05
2	1	0	1	0	28.1277	-0.800398	-0.800793	-0.0977127	2	-0.00175364	7.82476e-05
2	1	0	0	0	28.2675	-0.786403	-0.786842	-0.0894537	2	-0.0017666	7.03859e-05
2	1	0	0	0	28.4075	-0.772408	-0.772851	-0.0823592	2	-0.0017785	6.36514e-05
2	1	0	0	0	28.5475	-0.758413	-0.758834	-0.0761983	2	-0.00178949	5.78219e-05
2	1	0	0	0	28.6875	-0.744418	-0.744848	-0.0710722	2	-0.00179969	5.2938e-05
2	1	0	1	0	28.8273	-0.730423	-0.730862	-0.0666325	2	-0.00180919	4.86991e-05
2	1	0	1	0	28.9673	-0.716428	-0.716842	-0.0626303	2	-0.00181813	4.4896e-05
2	1	0	1	0	29.1073	-0.702433	-0.702849	-0.0592326	2	-0.00182654	4.16316e-05
2	1	0	1	0	29.2473	-0.688438	-0.688862	-0.0560456	2	-0.0018345	3.86077e-05
2	1	0	0	0	29.3871	-0.674443	-0.674877	-0.0531715	2	-0.00184203	3.58842e-05
2	1	0	0	0	29.5271	-0.660448	-0.660888	-0.0506705	2	-0.00184919	3.34875e-05
2	1	0	1	0	29.6981	-0.643354	-0.643755	-0.0472919	2	-0.00185744	3.04444e-05
2	1	0	1	0	29.838	-0.62935	-0.629767	-0.0449923	2	-0.00186386	2.83347e-05
2	1	0	0	0	29.9779	-0.615364	-0.615782	-0.0428748	2	-0.00186997	2.64015e-05
2	1	0	0	0	30.1179	-0.60137	-0.601783	-0.0407652	2	-0.00187579	2.45318e-05
2	1	0	0	0	30.2579	-0.587375	-0.587771	-0.0387734	2	-0.00188133	2.27899e-05
2	1	0	0	0	30.3978	-0.57337	-0.573773	-0.0368227	2	-0.00188659	2.11278e-05
2	1	0	1	0	30.5377	-0.559385	-0.55981	-0.0349086	2	-0.00189158	1.95422e-05
2	1	0	1	0	30.6777	-0.54539	-0.545793	-0.0330065	2	-0.0018963	1.80147e-05
2	1	0	1	0	30.8177	-0.531395	-0.531801	-0.0311147	2	-0.00190076	1.65468e-05
2	1	0	1	0	30.9576	-0.51739	-0.517813	-0.0291763	2	-0.00190495	1.51079e-05
2	1	0	0	0	31.0975	-0.503405	-0.503812	-0.0272989	2	-0.00190887	1.37535e-05
2	1	0	0	0	31.2375	-0.489409	-0.48982	-0.0253327	2	-0.00191252	1.24085e-05
2	1	0	0	0	31.3775	-0.475414	-0.475818	-0.0233245	2	-0.00191589	1.10982e-05
2	1	0	0	0	31.5174	-0.46141	-0.461812	-0.0212265	2	-0.00191897	9.80267e-06
2	1	0	1	0	31.6573	-0.447425	-0.447823	-0.0190721	2	-0.00192176	8.5409e-06
2	1	0	1	0	31.7973	-0.433429	-0.433826	-0.016893	2	-0.00192424	7.32865e-06
2	1	0	1	0	31.9373	-0.419434	-0.419844	-0.0146726	2	-0.00192642	6.16022e-06
2	1	0	1	0	32.0772	-0.40543	-0.405824	-0.0123742	2	-0.00192828	5.02174e-06
2	1	0	0	0	32.2171	-0.391444	-0.391818	-0.010246	2	-0.00192983	4.01457e-06
2	1	0	0	0	32.3571	-0.37745	-0.377861	-0.00812541	2	-0.00193108	3.07028e-06
2	1	0	0	0	32.4971	-0.363455	-0.363861	-0.00594985	2	-0.00193203	2.16492e-06
2	1	0	1	0	32.6669	-0.346461	-0.346874	-0.00330556	2	-0.00193282	1.14661e-06
2	1	0	1	0	32.8069	-0.332466	-0.332856	-0.00135438	2	-0.00193314	4.50812e-07
2	1	0	1	0	32.9469	-0.318471	-0.318859	0.000629064	2	-0.00193319	2.00583e-07
2	1	0	1	0	33.0869	-0.304476	-0.304865	0.00261588	2	-0.00193296	7.97491e-07
2	1	0	0	0	33.2267	-0.290481	-0.290841	0.00470259	2	-0.00193245	1.36771e-06
2	1	0	0	0	33.3667	-0.276486	-0.276843	0.00691803	2	-0.00193164	1.91521e-06
2	1	0	0	0	33.5067	-0.262491	-0.262824	0.00934043	2	-0.0019305	2.45489e-06
2	1	0	1	0	33.6777	-0.245397	-0.24578	0.0123473	2	-0.00192864	3.03471e-06
2	1	0	0	0	33.8175	-0.231402	-0.231768	0.0151344	2	-0.00192669	3.50766e-06
2	1	0	0	0	33.9575	-0.217407	-0.217796	0.0179127	2	-0.00192435	3.90131e-06
2	1	0	0	0	34.0975	-0.203412	-0.203788	0.0206344	2	-0.00192161	4.20505e-06
2	1	0	0	0	34.2375	-0.189417	-0.189785	0.023116	2	-0.00191851	4.38708e-06
2	1	0	1	0	34.3773	-0.175422	-0.175799	0.0252145	2	-0.0019151	4.43267e-06
2	1	0	1	0	34.5173	-0.161427	-0.161759	0.0267318	2	-0.00191142	4.3241e-06
2	1	0	1	0	34.6573	-0.147432	-0.147782	0.0275479	2	-0.00190757	4.07108e-06
2	1	0	1	0	34.7973	-0.133437	-0.133791	0.0275625	2	-0.00190367	3.68761e-06
2	1	0	0	0	34.9371	-0.119442	-0.119801	0.0268293	2	-0.00189982	3.21418e-06
2	1	0	0	0	35.0771	-0.105447	-0.105791	0.0255655	2	-0.00189611	2.70459e-06
2	1	0	0	0	35.2171	-0.0914517	-0.0918045	0.023955	2	-0.00189261	2.19917e-06
2	1	0	0	0	35.3571	-0.0774567	-0.077807	0.022194	2	-0.00188935	1.72685e-06
2	1	0	1	0	35.4969	-0.0634617	-0.063825	0.0204823	2	-0.00188633	1.30728e-06
2	1	0	1	0	35.6369	-0.0494667	-0.049836	0.0189855	2	-0.00188354	9.46163e-07
2	1	0	1	0	35.7769	-0.0354717	-0.0358318	0.0177544	2	-0.00188093	6.3617e-07
2	1	0	1	0	35.9169	-0.0214767	-0.0218349	0.0168381	2	-0.00187848	3.67658e-07
2	1	0	0	0	35.9932	-0.0138294	-0.0142124	0.0165027	2	-0.0018772	2.34543e-07