File: TAP_Report/Data/Res_growth/blank_1_2.mpt
EC-Lab ASCII FILE
Nb header lines : 54

Cyclic Voltammetry

Run on channel : 1 (SN 0696)
User :
Electrode connection : standard
Ewe ctrl range : min = -2.50 V, max = 2.50 V
Ewe,I filtering : 50 kHz
Channel : Grounded
Acquisition started on : 01/18/2017 14:17:27
Saved on :
	File : blank_1.mpr
	Directory : H:\EC-Lab\Data\Resazurin Bulk 18-1-17\
	Host : 144.32.136.43
Device : SP-300 (SN 0182)
Address : USB
EC-Lab for windows v10.44 (software)
Internet server v10.44 (firmware)
Command interpretor v10.44 (firmware)
Electrode material :
Initial state :
Electrolyte :
Comments :
Cable : standard
Reference electrode : SCE Saturated Calomel Electrode (0.241 V)
Electrode surface area : 0.001 cm²
Characteristic mass : 0.001 g
Equivalent Weight : 0.000 g/eq.
Density : 0.000 g/cm3
Ei (V)              0.000
vs.                 Eoc
dE/dt               100.000
dE/dt unit          mV/s
E1 (V)              0.000
vs.                 Ref
Step percent        50
N                   10
E range min (V)     -2.500
E range max (V)     2.500
I Range             Auto
I Range min         Unset
I Range max         Unset
I Range init        Unset
Bandwidth           8
E2 (V)              -0.900
vs.                 Ref
nc cycles           2
Reverse Scan        1
Ef (V)              0.000
vs.                 Eoc

mode	ox/red	error	control changes	counter inc.	time/s	control/V	Ewe/V	<I>/mA	cycle number	(Q-Qo)/C	P/W
2	1	0	0	1	17.9966	-0.0158287	-0.0165896	0.0157712	2	-0.000973923	2.61638e-07
2	1	0	1	1	18.1321	-0.00228358	-0.0030497	0.0152912	2	-0.000971782	4.66338e-08
2	0	0	0	1	18.2607	-0.0105806	-0.0113855	0.00882637	2	-0.000970331	1.00493e-07
2	0	0	1	1	18.4005	-0.0245756	-0.0253794	0.00609073	2	-0.000969347	1.54579e-07
2	0	0	0	1	18.5715	-0.0416695	-0.0424966	0.00360957	2	-0.000968552	1.53394e-07
2	0	0	0	1	18.7115	-0.0556645	-0.0564793	0.00227966	2	-0.000968145	1.28753e-07
2	0	0	0	1	18.8515	-0.0696595	-0.0704689	0.00120786	2	-0.000967904	8.51166e-08
2	0	0	1	1	18.9913	-0.0836545	-0.0844581	0.000285844	2	-0.000967804	2.41419e-08
2	0	0	1	1	19.1313	-0.0976495	-0.0984562	-0.000575099	2	-0.000967826	5.66221e-08
2	0	0	1	1	19.2713	-0.111644	-0.11246	-0.00138711	2	-0.000967965	1.55994e-07
2	0	0	1	1	19.4113	-0.125639	-0.126479	-0.0022319	2	-0.000968219	2.82288e-07
2	0	0	0	1	19.5511	-0.139634	-0.140449	-0.00314679	2	-0.000968596	4.41964e-07
2	0	0	0	1	19.6911	-0.153629	-0.154464	-0.00419557	2	-0.00096911	6.48064e-07
2	0	0	0	1	19.8311	-0.167625	-0.168453	-0.00542677	2	-0.000969782	9.14157e-07
2	0	0	0	1	19.9711	-0.181619	-0.182444	-0.0069152	2	-0.000970646	1.26164e-06
2	0	0	1	1	20.1109	-0.195614	-0.19647	-0.00876634	2	-0.000971742	1.72232e-06
2	0	0	0	1	20.2819	-0.212708	-0.213524	-0.011214	2	-0.000973464	2.39446e-06
2	0	0	0	1	20.4219	-0.226703	-0.227539	-0.013859	2	-0.000975263	3.15347e-06
2	0	0	1	1	20.5617	-0.240698	-0.241531	-0.0168203	2	-0.000977449	4.06262e-06
2	0	0	1	1	20.7017	-0.254693	-0.255538	-0.0198104	2	-0.000980055	5.06231e-06
2	0	0	1	1	20.8417	-0.268688	-0.269538	-0.0228511	2	-0.000983081	6.15925e-06
2	0	0	1	1	20.9817	-0.282683	-0.283519	-0.0258226	2	-0.000986528	7.32121e-06
2	0	0	0	1	21.1215	-0.296678	-0.297507	-0.0287703	2	-0.000990386	8.55934e-06
2	0	0	0	1	21.2615	-0.310673	-0.311536	-0.0317597	2	-0.000994667	9.89429e-06
2	0	0	0	1	21.4015	-0.324668	-0.325509	-0.0347891	2	-0.000999369	1.13241e-05
2	0	0	0	1	21.5415	-0.338663	-0.339486	-0.0379237	2	-0.0010045	1.28746e-05
2	0	0	1	1	21.6813	-0.352658	-0.353501	-0.0411858	2	-0.00101007	1.45592e-05
2	0	0	1	1	21.8213	-0.366653	-0.367485	-0.0444768	2	-0.00101611	1.63445e-05
2	0	0	1	1	21.9613	-0.380648	-0.381491	-0.0478883	2	-0.00102261	1.82689e-05
2	0	0	1	1	22.1013	-0.394643	-0.395477	-0.0512831	2	-0.0010296	2.02813e-05
2	0	0	0	1	22.2411	-0.408638	-0.4095	-0.0546985	2	-0.00103705	2.2399e-05
2	0	0	0	1	22.3811	-0.422633	-0.423481	-0.0579107	2	-0.00104498	2.45241e-05
2	0	0	0	1	22.5211	-0.436628	-0.437488	-0.0608397	2	-0.00105334	2.66167e-05
2	0	0	0	1	22.6611	-0.450623	-0.451459	-0.0634567	2	-0.00106208	2.86481e-05
2	0	0	1	1	22.8009	-0.464618	-0.465457	-0.0657438	2	-0.00107116	3.06009e-05
2	0	0	1	1	22.9409	-0.478613	-0.479461	-0.0677215	2	-0.00108055	3.24698e-05
2	0	0	1	1	23.0809	-0.492608	-0.493453	-0.0693202	2	-0.00109018	3.42063e-05
2	0	0	1	1	23.2209	-0.506603	-0.50745	-0.0708374	2	-0.00110004	3.59465e-05
2	0	0	0	1	23.3607	-0.520598	-0.521451	-0.0721586	2	-0.00111008	3.76272e-05
2	0	0	0	1	23.5007	-0.534593	-0.535447	-0.0733692	2	-0.0011203	3.92853e-05
2	0	0	0	1	23.6407	-0.548588	-0.54944	-0.0744959	2	-0.00113069	4.09311e-05
2	0	0	0	1	23.7807	-0.562583	-0.563417	-0.0755156	2	-0.00114124	4.25468e-05
2	0	0	1	1	23.9205	-0.576578	-0.577432	-0.0765229	2	-0.00115191	4.41868e-05
2	0	0	1	1	24.0605	-0.590573	-0.59144	-0.0775295	2	-0.00116274	4.58541e-05
2	0	0	1	1	24.2005	-0.604568	-0.605406	-0.0785612	2	-0.0011737	4.75615e-05
2	0	0	1	1	24.3405	-0.618563	-0.619425	-0.0795801	2	-0.00118481	4.92939e-05
2	0	0	0	1	24.4803	-0.632558	-0.633398	-0.0806374	2	-0.00119605	5.10756e-05
2	0	0	0	1	24.6203	-0.646553	-0.647382	-0.081783	2	-0.00120746	5.29448e-05
2	0	0	0	1	24.7603	-0.660548	-0.661409	-0.0829809	2	-0.00121903	5.48843e-05
2	0	0	0	1	24.9003	-0.674543	-0.675409	-0.0843241	2	-0.00123078	5.69533e-05
2	0	0	1	1	25.0401	-0.688538	-0.689415	-0.085784	2	-0.00124271	5.91407e-05
2	0	0	1	1	25.1801	-0.702533	-0.703397	-0.0874382	2	-0.00125488	6.15038e-05
2	0	0	1	1	25.3201	-0.716528	-0.717401	-0.0893424	2	-0.00126729	6.40943e-05
2	0	0	1	1	25.4601	-0.730523	-0.731375	-0.0915759	2	-0.00128	6.69763e-05
2	0	0	0	1	25.5999	-0.744518	-0.745381	-0.0942142	2	-0.00129302	7.02254e-05
2	0	0	0	1	25.7399	-0.758513	-0.759386	-0.0973363	2	-0.00130645	7.39158e-05
2	0	0	0	1	25.8799	-0.772508	-0.77337	-0.101052	2	-0.00132037	7.81505e-05
2	0	0	1	1	26.0509	-0.789602	-0.790431	-0.106291	2	-0.00133813	8.40157e-05
2	0	0	0	1	26.1907	-0.803597	-0.804423	-0.112164	2	-0.00135346	9.02275e-05
2	0	0	0	1	26.3307	-0.817592	-0.818416	-0.119158	2	-0.00136971	9.75209e-05
2	0	0	0	1	26.4707	-0.831587	-0.832418	-0.127612	2	-0.00138705	0.000106226
2	0	0	0	1	26.6107	-0.845582	-0.846398	-0.137882	2	-0.00140569	0.000116703
2	0	0	1	1	26.7505	-0.859577	-0.860412	-0.150147	2	-0.00142588	0.000129188
2	0	0	1	1	26.8905	-0.873572	-0.874425	-0.164696	2	-0.00144796	0.000144015
2	0	0	1	1	27.0305	-0.887567	-0.888396	-0.182036	2	-0.00147227	0.00016172
2	1	0	1	0	27.1609	-0.899463	-0.900283	-0.197313	2	-0.00149727	0.000177637
2	1	0	1	0	27.3009	-0.885468	-0.886303	-0.169629	2	-0.0015227	0.000150343
2	1	0	1	0	27.4409	-0.871473	-0.872289	-0.148704	2	-0.00154486	0.000129713
2	1	0	1	0	27.5809	-0.857478	-0.85831	-0.131292	2	-0.00156435	0.00011269
2	1	0	0	0	27.7207	-0.843483	-0.844297	-0.116624	2	-0.00158158	9.84653e-05
2	1	0	0	0	27.8607	-0.829488	-0.830308	-0.104139	2	-0.00159693	8.64678e-05
2	1	0	0	0	28.0007	-0.815493	-0.816312	-0.0935314	2	-0.00161067	7.63508e-05
2	1	0	0	0	28.1407	-0.801498	-0.802307	-0.0846205	2	-0.00162305	6.78916e-05
2	1	0	1	0	28.2805	-0.787503	-0.788319	-0.077026	2	-0.00163426	6.0721e-05
2	1	0	1	0	28.4205	-0.773508	-0.774321	-0.070646	2	-0.00164451	5.47027e-05
2	1	0	1	0	28.5605	-0.759513	-0.760334	-0.065193	2	-0.00165393	4.95684e-05
2	1	0	1	0	28.7005	-0.745518	-0.746341	-0.060615	2	-0.00166265	4.52394e-05
2	1	0	0	0	28.8403	-0.731523	-0.732338	-0.0567094	2	-0.00167076	4.15305e-05
2	1	0	0	0	28.9803	-0.717528	-0.718337	-0.0533871	2	-0.00167839	3.83499e-05
2	1	0	0	0	29.1203	-0.703533	-0.704348	-0.0505046	2	-0.00168558	3.55728e-05
2	1	0	0	0	29.2603	-0.689538	-0.690351	-0.0480129	2	-0.00169241	3.31458e-05
2	1	0	0	0	29.4311	-0.672444	-0.673245	-0.0454642	2	-0.0017003	3.06085e-05
2	1	0	0	0	29.5711	-0.658449	-0.659247	-0.043565	2	-0.00170649	2.87201e-05
2	1	0	0	0	29.7111	-0.644454	-0.645248	-0.0417798	2	-0.00171242	2.69583e-05
2	1	0	1	0	29.8509	-0.630459	-0.631271	-0.0401765	2	-0.00171811	2.53623e-05
2	1	0	1	0	29.9909	-0.616464	-0.617274	-0.0386219	2	-0.00172358	2.38403e-05
2	1	0	1	0	30.1309	-0.602469	-0.603269	-0.0370764	2	-0.00172884	2.23671e-05
2	1	0	1	0	30.2709	-0.588474	-0.589272	-0.0355126	2	-0.00173388	2.09266e-05
2	1	0	0	0	30.4107	-0.574479	-0.575279	-0.0339862	2	-0.0017387	1.95516e-05
2	1	0	0	0	30.5507	-0.560484	-0.561277	-0.0325064	2	-0.00174332	1.82451e-05
2	1	0	0	0	30.6907	-0.546489	-0.547274	-0.0309083	2	-0.00174771	1.69153e-05
2	1	0	0	0	30.8307	-0.532494	-0.533292	-0.0293404	2	-0.00175189	1.5647e-05
2	1	0	1	0	30.9705	-0.518499	-0.519292	-0.0277545	2	-0.00175585	1.44127e-05
2	1	0	1	0	31.1105	-0.504504	-0.505286	-0.026092	2	-0.00175957	1.31839e-05
2	1	0	1	0	31.2505	-0.490509	-0.491275	-0.0243956	2	-0.00176307	1.19849e-05
2	1	0	1	0	31.3905	-0.476514	-0.4773	-0.0226107	2	-0.00176632	1.07921e-05
2	1	0	0	0	31.5303	-0.462519	-0.463311	-0.0207232	2	-0.00176931	9.60128e-06
2	1	0	0	0	31.6703	-0.448524	-0.449303	-0.0187762	2	-0.00177203	8.4362e-06
2	1	0	0	0	31.8103	-0.434529	-0.435307	-0.0168183	2	-0.00177449	7.32115e-06
2	1	0	0	0	31.9503	-0.420534	-0.421319	-0.0147152	2	-0.00177665	6.19979e-06
2	1	0	1	0	32.0901	-0.406539	-0.407312	-0.0125841	2	-0.00177852	5.12564e-06
2	1	0	1	0	32.2301	-0.392544	-0.393305	-0.0104912	2	-0.0017801	4.12625e-06
2	1	0	1	0	32.3701	-0.378549	-0.379313	-0.00847285	2	-0.00178138	3.21386e-06
2	1	0	1	0	32.5101	-0.364554	-0.365304	-0.00640056	2	-0.00178238	2.33815e-06
2	1	0	0	0	32.6499	-0.350559	-0.351337	-0.00446077	2	-0.0017831	1.56724e-06
2	1	0	1	0	32.8209	-0.333465	-0.334217	-0.00178478	2	-0.00178362	5.96506e-07
2	1	0	1	0	32.9609	-0.31947	-0.320224	0.000163906	2	-0.00178373	5.24866e-08
2	1	0	1	0	33.1009	-0.305475	-0.306218	0.00220255	2	-0.00178356	6.74459e-07
2	1	0	0	0	33.2407	-0.29148	-0.292202	0.00433427	2	-0.00178311	1.26648e-06
2	1	0	0	0	33.3807	-0.277485	-0.278215	0.00667607	2	-0.00178233	1.85738e-06
2	1	0	0	0	33.5207	-0.26349	-0.264188	0.00929526	2	-0.00178122	2.4557e-06
2	1	0	1	0	33.6917	-0.246396	-0.247161	0.012541	2	-0.00177934	3.09965e-06
2	1	0	0	0	33.8315	-0.232401	-0.233159	0.0156468	2	-0.00177733	3.64819e-06
2	1	0	0	0	33.9715	-0.218406	-0.219167	0.0188632	2	-0.00177487	4.1342e-06
2	1	0	0	0	34.1115	-0.204411	-0.205164	0.021877	2	-0.00177197	4.48838e-06
2	1	0	0	0	34.2515	-0.190416	-0.191141	0.0246052	2	-0.00176867	4.70305e-06
2	1	0	1	0	34.3913	-0.176421	-0.177151	0.0267584	2	-0.00176503	4.74026e-06
2	1	0	1	0	34.5313	-0.162426	-0.163175	0.0283715	2	-0.00176112	4.62952e-06
2	1	0	1	0	34.6713	-0.148431	-0.149165	0.0293641	2	-0.00175702	4.38009e-06
2	1	0	1	0	34.8113	-0.134436	-0.135165	0.0294725	2	-0.00175285	3.98366e-06
2	1	0	0	0	34.9511	-0.120441	-0.121168	0.0289403	2	-0.00174872	3.50664e-06
2	1	0	0	0	35.0911	-0.106446	-0.107186	0.0278381	2	-0.00174469	2.98387e-06
2	1	0	0	0	35.2311	-0.0924513	-0.0931893	0.0263331	2	-0.00174086	2.45397e-06
2	1	0	0	0	35.3711	-0.0784564	-0.0791929	0.0246148	2	-0.00173725	1.94932e-06
2	1	0	1	0	35.5109	-0.0644614	-0.0652022	0.0229498	2	-0.00173388	1.49637e-06
2	1	0	1	0	35.6509	-0.0504664	-0.0512102	0.0214341	2	-0.00173073	1.09765e-06
2	1	0	1	0	35.7909	-0.0364714	-0.0371996	0.020094	2	-0.00172778	7.47488e-07
2	1	0	1	0	35.9309	-0.0224764	-0.0232159	0.0190137	2	-0.00172501	4.41418e-07
2	1	0	0	0	35.9962	-0.0159287	-0.0166849	0.0186668	2	-0.00172376	3.11455e-07