File: TAP_Report/Data/Res_growth/mg4_2_2.mpt
EC-Lab ASCII FILE
Nb header lines : 54

Cyclic Voltammetry

Run on channel : 1 (SN 0696)
User :
Electrode connection : standard
Ewe ctrl range : min = -2.50 V, max = 2.50 V
Ewe,I filtering : 50 kHz
Channel : Grounded
Acquisition started on : 01/18/2017 14:49:25
Saved on :
	File : mg4_2.mpr
	Directory : H:\EC-Lab\Data\Resazurin Bulk 18-1-17\
	Host : 144.32.136.43
Device : SP-300 (SN 0182)
Address : USB
EC-Lab for windows v10.44 (software)
Internet server v10.44 (firmware)
Command interpretor v10.44 (firmware)
Electrode material :
Initial state :
Electrolyte :
Comments :
Cable : standard
Reference electrode : SCE Saturated Calomel Electrode (0.241 V)
Electrode surface area : 0.001 cm²
Characteristic mass : 0.001 g
Equivalent Weight : 0.000 g/eq.
Density : 0.000 g/cm3
Ei (V)              0.000
vs.                 Eoc
dE/dt               100.000
dE/dt unit          mV/s
E1 (V)              0.000
vs.                 Ref
Step percent        50
N                   10
E range min (V)     -2.500
E range max (V)     2.500
I Range             Auto
I Range min         Unset
I Range max         Unset
I Range init        Unset
Bandwidth           8
E2 (V)              -0.900
vs.                 Ref
nc cycles           2
Reverse Scan        1
Ef (V)              0.000
vs.                 Eoc

mode	ox/red	error	control changes	counter inc.	time/s	control/V	Ewe/V	<I>/mA	cycle number	(Q-Qo)/C	P/W
2	1	0	1	1	17.9956	-0.0277245	-0.0281234	0.0122438	2	-0.000735646	3.44338e-07
2	1	0	0	1	18.1311	-0.0141793	-0.0145581	0.0118172	2	-0.000733975	1.72036e-07
2	1	0	0	1	18.2691	-0.000384255	-0.000788604	0.0115138	2	-0.000732326	9.07981e-09
2	0	0	0	1	18.3987	-0.0125799	-0.0129904	0.00574175	2	-0.000731402	7.45875e-08
2	0	0	0	1	18.5695	-0.0296738	-0.0300993	0.0033323	2	-0.000730653	1.003e-07
2	0	0	0	1	18.7095	-0.0436688	-0.0440936	0.00219748	2	-0.000730272	9.68949e-08
2	0	0	0	1	18.8495	-0.0576638	-0.0580871	0.00130411	2	-0.000730032	7.57519e-08
2	0	0	0	1	18.9895	-0.0716588	-0.0720945	0.000594481	2	-0.000729902	4.28588e-08
2	0	0	1	1	19.1293	-0.0856538	-0.086089	-2.62473e-05	2	-0.000729864	2.2596e-09
2	0	0	1	1	19.2693	-0.0996488	-0.10009	-0.000553775	2	-0.000729906	5.54273e-08
2	0	0	1	1	19.4093	-0.113644	-0.114089	-0.00107548	2	-0.000730021	1.22701e-07
2	0	0	1	1	19.5493	-0.127639	-0.128072	-0.00155998	2	-0.000730206	1.99789e-07
2	0	0	0	1	19.6891	-0.141634	-0.142081	-0.00207546	2	-0.000730461	2.94883e-07
2	0	0	0	1	19.8291	-0.155629	-0.156078	-0.00265111	2	-0.000730793	4.1378e-07
2	0	0	0	1	19.9691	-0.169624	-0.17011	-0.00327202	2	-0.000731209	5.56603e-07
2	0	0	0	1	20.1091	-0.183619	-0.18408	-0.00406007	2	-0.000731723	7.47379e-07
2	0	0	1	1	20.2489	-0.197614	-0.198091	-0.00502035	2	-0.000732356	9.94485e-07
2	0	0	1	1	20.3889	-0.211609	-0.212092	-0.00618488	2	-0.000733138	1.31176e-06
2	0	0	1	1	20.5289	-0.225604	-0.226089	-0.00765336	2	-0.000734104	1.73034e-06
2	0	0	1	1	20.6689	-0.239599	-0.240086	-0.00939205	2	-0.000735294	2.2549e-06
2	0	0	1	1	20.8397	-0.256693	-0.257147	-0.0116167	2	-0.000737104	2.98719e-06
2	0	0	1	1	20.9797	-0.270688	-0.271143	-0.0138429	2	-0.00073892	3.75341e-06
2	0	0	1	1	21.1197	-0.284683	-0.285134	-0.0160827	2	-0.000741051	4.58573e-06
2	0	0	1	1	21.2597	-0.298678	-0.29913	-0.0183415	2	-0.000743499	5.48648e-06
2	0	0	0	1	21.3995	-0.312673	-0.313109	-0.020601	2	-0.000746262	6.45036e-06
2	0	0	0	1	21.5395	-0.326668	-0.327117	-0.0228245	2	-0.000749343	7.4663e-06
2	0	0	0	1	21.6795	-0.340663	-0.341104	-0.0250997	2	-0.000752737	8.56162e-06
2	0	0	0	1	21.8195	-0.354658	-0.355117	-0.0273778	2	-0.00075645	9.72232e-06
2	0	0	1	1	21.9593	-0.368653	-0.36909	-0.0297098	2	-0.000760482	1.09656e-05
2	0	0	1	1	22.0993	-0.382648	-0.383105	-0.0320634	2	-0.00076485	1.22837e-05
2	0	0	1	1	22.2393	-0.396643	-0.397112	-0.0345035	2	-0.000769552	1.37017e-05
2	0	0	1	1	22.3793	-0.410638	-0.411091	-0.0368704	2	-0.000774586	1.51571e-05
2	0	0	0	1	22.5191	-0.424633	-0.4251	-0.0390566	2	-0.000779933	1.6603e-05
2	0	0	0	1	22.6591	-0.438628	-0.439082	-0.0410952	2	-0.000785587	1.80442e-05
2	0	0	0	1	22.7991	-0.452623	-0.453078	-0.0429859	2	-0.000791513	1.9476e-05
2	0	0	0	1	22.9391	-0.466618	-0.467083	-0.0445793	2	-0.000797679	2.08222e-05
2	0	0	1	1	23.0789	-0.480613	-0.481069	-0.0459704	2	-0.000804049	2.2115e-05
2	0	0	1	1	23.2189	-0.494608	-0.495069	-0.0472084	2	-0.000810612	2.33714e-05
2	0	0	1	1	23.3589	-0.508603	-0.509066	-0.0483112	2	-0.000817338	2.45936e-05
2	0	0	1	1	23.4989	-0.522598	-0.523063	-0.0492807	2	-0.000824212	2.57769e-05
2	0	0	0	1	23.6387	-0.536593	-0.537053	-0.0502243	2	-0.000831211	2.69731e-05
2	0	0	0	1	23.7787	-0.550588	-0.551046	-0.0511173	2	-0.000838344	2.8168e-05
2	0	0	0	1	23.9187	-0.564583	-0.565037	-0.0519491	2	-0.000845596	2.93532e-05
2	0	0	0	1	24.0587	-0.578578	-0.579052	-0.0527558	2	-0.000852963	3.05484e-05
2	0	0	1	1	24.1985	-0.592573	-0.593033	-0.0535529	2	-0.000860434	3.17586e-05
2	0	0	1	1	24.3385	-0.606568	-0.607036	-0.0544014	2	-0.00086803	3.30236e-05
2	0	0	1	1	24.4785	-0.620563	-0.621029	-0.0552368	2	-0.000875743	3.43036e-05
2	0	0	1	1	24.6185	-0.634558	-0.635029	-0.056146	2	-0.000883581	3.56543e-05
2	0	0	0	1	24.7583	-0.648553	-0.649021	-0.0571739	2	-0.000891541	3.71071e-05
2	0	0	0	1	24.8983	-0.662548	-0.663012	-0.0582746	2	-0.000899659	3.86368e-05
2	0	0	0	1	25.0383	-0.676543	-0.677	-0.0595368	2	-0.000907941	4.03064e-05
2	0	0	0	1	25.1783	-0.690538	-0.690992	-0.0609547	2	-0.000916408	4.21192e-05
2	0	0	1	1	25.3181	-0.704533	-0.704979	-0.0625826	2	-0.000925077	4.41195e-05
2	0	0	1	1	25.4581	-0.718528	-0.718992	-0.0644923	2	-0.000934007	4.63694e-05
2	0	0	1	1	25.5981	-0.732523	-0.732995	-0.0667376	2	-0.000943227	4.89184e-05
2	0	0	1	1	25.7381	-0.746518	-0.746989	-0.0694175	2	-0.00095279	5.18541e-05
2	0	0	0	1	25.8779	-0.760513	-0.76098	-0.0726236	2	-0.000962751	5.52651e-05
2	0	0	0	1	26.0179	-0.774508	-0.774977	-0.0765954	2	-0.000973227	5.93597e-05
2	0	0	0	1	26.1579	-0.788503	-0.788957	-0.0814273	2	-0.000984316	6.42426e-05
2	0	0	0	1	26.2979	-0.802498	-0.802964	-0.0873322	2	-0.000996156	7.01246e-05
2	0	0	1	1	26.4377	-0.816493	-0.81696	-0.0945785	2	-0.0010089	7.72669e-05
2	0	0	0	1	26.6087	-0.833586	-0.834003	-0.10503	2	-0.00102598	8.75951e-05
2	0	0	0	1	26.7487	-0.847582	-0.847998	-0.115796	2	-0.00104148	9.81947e-05
2	0	0	0	1	26.8887	-0.861576	-0.862	-0.128554	2	-0.00105863	0.000110814
2	0	0	1	1	27.0285	-0.875571	-0.875976	-0.143638	2	-0.0010777	0.000125823
2	0	0	1	1	27.1685	-0.889566	-0.889968	-0.161413	2	-0.00109909	0.000143652
2	1	0	1	0	27.2989	-0.897464	-0.897867	-0.168292	2	-0.00112123	0.000151104
2	1	0	1	0	27.4389	-0.883469	-0.883861	-0.142178	2	-0.00114278	0.000125665
2	1	0	1	0	27.5789	-0.869474	-0.869879	-0.12188	2	-0.00116115	0.000106021
2	1	0	0	0	27.7187	-0.855479	-0.855886	-0.104986	2	-0.00117691	8.98561e-05
2	1	0	0	0	27.8587	-0.841484	-0.841887	-0.0908765	2	-0.00119052	7.65078e-05
2	1	0	0	0	27.9987	-0.827489	-0.827888	-0.0790542	2	-0.00120232	6.5448e-05
2	1	0	0	0	28.1387	-0.813494	-0.813909	-0.0690192	2	-0.0012126	5.61753e-05
2	1	0	1	0	28.2785	-0.799499	-0.799883	-0.0606758	2	-0.00122158	4.85335e-05
2	1	0	1	0	28.4185	-0.785504	-0.785912	-0.0537032	2	-0.00122951	4.2206e-05
2	1	0	1	0	28.5585	-0.771509	-0.771923	-0.0478772	2	-0.00123654	3.69575e-05
2	1	0	1	0	28.7293	-0.754415	-0.754834	-0.0420135	2	-0.00124412	3.17132e-05
2	1	0	1	0	28.8693	-0.74042	-0.74083	-0.0382231	2	-0.00124969	2.83168e-05
2	1	0	1	0	29.0093	-0.726425	-0.72683	-0.0350893	2	-0.00125478	2.5504e-05
2	1	0	1	0	29.1493	-0.71243	-0.712823	-0.0324784	2	-0.00125947	2.31513e-05
2	1	0	0	0	29.2891	-0.698435	-0.698801	-0.0303669	2	-0.00126382	2.12205e-05
2	1	0	0	0	29.4291	-0.68444	-0.684843	-0.0286251	2	-0.00126791	1.96037e-05
2	1	0	0	0	29.5691	-0.670445	-0.670847	-0.0271428	2	-0.00127177	1.82087e-05
2	1	0	0	0	29.7091	-0.65645	-0.656853	-0.0258594	2	-0.00127544	1.69858e-05
2	1	0	1	0	29.8489	-0.642455	-0.642853	-0.0247356	2	-0.00127894	1.59013e-05
2	1	0	1	0	29.9889	-0.62846	-0.628874	-0.0236937	2	-0.0012823	1.49004e-05
2	1	0	1	0	30.1289	-0.614465	-0.614872	-0.0227768	2	-0.00128551	1.40048e-05
2	1	0	1	0	30.2689	-0.60047	-0.600871	-0.021775	2	-0.00128859	1.3084e-05
2	1	0	0	0	30.4087	-0.586475	-0.58687	-0.020834	2	-0.00129153	1.22269e-05
2	1	0	0	0	30.5487	-0.57248	-0.572866	-0.0198751	2	-0.00129435	1.13858e-05
2	1	0	0	0	30.6887	-0.558485	-0.558892	-0.018928	2	-0.00129703	1.05787e-05
2	1	0	0	0	30.8287	-0.54449	-0.54489	-0.0178992	2	-0.00129957	9.75308e-06
2	1	0	1	0	30.9685	-0.530495	-0.530882	-0.0168643	2	-0.00130196	8.95292e-06
2	1	0	1	0	31.1085	-0.5165	-0.51689	-0.015805	2	-0.00130421	8.16942e-06
2	1	0	1	0	31.2485	-0.502505	-0.502904	-0.0147228	2	-0.00130631	7.40413e-06
2	1	0	1	0	31.3885	-0.48851	-0.488921	-0.0135564	2	-0.00130825	6.62801e-06
2	1	0	0	0	31.5283	-0.474515	-0.474916	-0.0123554	2	-0.00131003	5.86776e-06
2	1	0	0	0	31.6683	-0.46052	-0.460941	-0.0110994	2	-0.00131163	5.11616e-06
2	1	0	0	0	31.8083	-0.446525	-0.446923	-0.00971668	2	-0.00131304	4.34261e-06
2	1	0	0	0	31.9483	-0.43253	-0.432933	-0.00830687	2	-0.00131427	3.59632e-06
2	1	0	1	0	32.0881	-0.418535	-0.41895	-0.0068517	2	-0.00131529	2.87052e-06
2	1	0	1	0	32.2281	-0.40454	-0.404926	-0.00537837	2	-0.00131611	2.17784e-06
2	1	0	0	0	32.3991	-0.387446	-0.387825	-0.0033338	2	-0.00131684	1.29293e-06
2	1	0	0	0	32.5391	-0.373451	-0.373824	-0.00187771	2	-0.0013172	7.01934e-07
2	1	0	1	0	32.6789	-0.359456	-0.359829	-0.000457639	2	-0.00131736	1.64672e-07
2	1	0	1	0	32.8189	-0.345461	-0.345841	0.000925255	2	-0.00131733	3.19991e-07
2	1	0	1	0	32.9589	-0.331466	-0.331839	0.00230084	2	-0.0013171	7.63508e-07
2	1	0	1	0	33.0989	-0.317471	-0.317828	0.00367935	2	-0.00131668	1.1694e-06
2	1	0	0	0	33.2387	-0.303476	-0.303823	0.00508994	2	-0.00131606	1.54644e-06
2	1	0	0	0	33.3787	-0.289481	-0.289804	0.00657261	2	-0.00131525	1.90477e-06
2	1	0	0	0	33.5187	-0.275486	-0.275821	0.00810588	2	-0.00131422	2.23578e-06
2	1	0	0	0	33.6587	-0.261491	-0.261816	0.00974346	2	-0.00131297	2.551e-06
2	1	0	0	0	33.8295	-0.244397	-0.244786	0.0115851	2	-0.00131113	2.83588e-06
2	1	0	0	0	33.9695	-0.230402	-0.230773	0.0133741	2	-0.00130934	3.08638e-06
2	1	0	0	0	34.1095	-0.216407	-0.216806	0.015205	2	-0.0013073	3.29655e-06
2	1	0	0	0	34.2495	-0.202412	-0.202793	0.0170596	2	-0.001305	3.45955e-06
2	1	0	1	0	34.3893	-0.188417	-0.188793	0.0188466	2	-0.00130245	3.5581e-06
2	1	0	1	0	34.5293	-0.174422	-0.174799	0.020401	2	-0.00129966	3.56607e-06
2	1	0	1	0	34.6693	-0.160427	-0.160785	0.02159	2	-0.00129668	3.47136e-06
2	1	0	1	0	34.8093	-0.146432	-0.146787	0.0221432	2	-0.00129358	3.25033e-06
2	1	0	0	0	34.9491	-0.132437	-0.132795	0.0219788	2	-0.00129045	2.91868e-06
2	1	0	0	0	35.0891	-0.118442	-0.118816	0.0211543	2	-0.00128738	2.51346e-06
2	1	0	0	0	35.2291	-0.104447	-0.104808	0.0198605	2	-0.00128447	2.08153e-06
2	1	0	0	0	35.3691	-0.0904521	-0.0908009	0.0183717	2	-0.00128176	1.66817e-06
2	1	0	1	0	35.5089	-0.0764571	-0.0768417	0.0169123	2	-0.00127925	1.29957e-06
2	1	0	1	0	35.6489	-0.0624621	-0.062832	0.0156647	2	-0.00127694	9.84245e-07
2	1	0	1	0	35.7889	-0.0484671	-0.0488504	0.0146273	2	-0.00127478	7.14552e-07
2	1	0	1	0	35.9289	-0.0344721	-0.0348336	0.013857	2	-0.00127275	4.82689e-07
2	1	0	0	0	35.9947	-0.0278744	-0.028234	0.0135249	2	-0.00127183	3.81861e-07