File: TAP_Report/Data/Res_growth/mg4_1_2.mpt
EC-Lab ASCII FILE
Nb header lines : 54

Cyclic Voltammetry

Run on channel : 1 (SN 0696)
User :
Electrode connection : standard
Ewe ctrl range : min = -2.50 V, max = 2.50 V
Ewe,I filtering : 50 kHz
Channel : Grounded
Acquisition started on : 01/18/2017 14:46:12
Saved on :
	File : mg4_1.mpr
	Directory : H:\EC-Lab\Data\Resazurin Bulk 18-1-17\
	Host : 144.32.136.43
Device : SP-300 (SN 0182)
Address : USB
EC-Lab for windows v10.44 (software)
Internet server v10.44 (firmware)
Command interpretor v10.44 (firmware)
Electrode material :
Initial state :
Electrolyte :
Comments :
Cable : standard
Reference electrode : SCE Saturated Calomel Electrode (0.241 V)
Electrode surface area : 0.001 cm²
Characteristic mass : 0.001 g
Equivalent Weight : 0.000 g/eq.
Density : 0.000 g/cm3
Ei (V)              0.000
vs.                 Eoc
dE/dt               100.000
dE/dt unit          mV/s
E1 (V)              0.000
vs.                 Ref
Step percent        50
N                   10
E range min (V)     -2.500
E range max (V)     2.500
I Range             Auto
I Range min         Unset
I Range max         Unset
I Range init        Unset
Bandwidth           8
E2 (V)              -0.900
vs.                 Ref
nc cycles           2
Reverse Scan        1
Ef (V)              0.000
vs.                 Eoc

mode	ox/red	error	control changes	counter inc.	time/s	control/V	Ewe/V	<I>/mA	cycle number	(Q-Qo)/C	P/W
2	1	0	1	1	17.9956	-0.0252254	-0.0259908	0.0119931	2	-0.000714731	3.11709e-07
2	1	0	0	1	18.1311	-0.0116802	-0.0124579	0.0116429	2	-0.000713094	1.45046e-07
2	0	0	1	1	18.2537	-0.000584183	-0.00140295	0.00946039	2	-0.000711665	1.32724e-08
2	0	0	1	1	18.3937	-0.0145792	-0.0154078	0.00542344	2	-0.000710739	8.35636e-08
2	0	0	0	1	18.5635	-0.0315731	-0.0324064	0.00312711	2	-0.000710035	1.01338e-07
2	0	0	0	1	18.7035	-0.0455681	-0.0464096	0.00202363	2	-0.00070968	9.39156e-08
2	0	0	0	1	18.8435	-0.0595631	-0.0603837	0.00117913	2	-0.000709461	7.12002e-08
2	0	0	0	1	18.9835	-0.0735581	-0.0744011	0.000475201	2	-0.000709348	3.53555e-08
2	0	0	1	1	19.1233	-0.0875531	-0.0883848	-0.000115671	2	-0.000709326	1.02235e-08
2	0	0	1	1	19.2633	-0.101548	-0.102391	-0.000659127	2	-0.000709382	6.74889e-08
2	0	0	1	1	19.4033	-0.115543	-0.116395	-0.00115364	2	-0.000709511	1.34278e-07
2	0	0	1	1	19.5433	-0.129538	-0.130376	-0.00168063	2	-0.00070971	2.19113e-07
2	0	0	0	1	19.6831	-0.143533	-0.144396	-0.00220559	2	-0.000709982	3.18477e-07
2	0	0	0	1	19.8231	-0.157528	-0.15839	-0.00278402	2	-0.00071033	4.40961e-07
2	0	0	0	1	19.9631	-0.171523	-0.172372	-0.00345033	2	-0.000710766	5.94741e-07
2	0	0	0	1	20.1031	-0.185518	-0.18636	-0.00426415	2	-0.000711305	7.94665e-07
2	0	0	1	1	20.2429	-0.199513	-0.20037	-0.0052432	2	-0.000711968	1.05058e-06
2	0	0	1	1	20.3829	-0.213508	-0.214388	-0.00644892	2	-0.000712785	1.38257e-06
2	0	0	1	1	20.5229	-0.227503	-0.228394	-0.00791399	2	-0.000713788	1.8075e-06
2	0	0	1	1	20.6629	-0.241498	-0.242392	-0.00967865	2	-0.000715017	2.34602e-06
2	0	0	1	1	20.8337	-0.258592	-0.259472	-0.0118368	2	-0.000716865	3.07132e-06
2	0	0	1	1	20.9737	-0.272587	-0.273453	-0.0138915	2	-0.000718702	3.79868e-06
2	0	0	1	1	21.1137	-0.286582	-0.287435	-0.0160213	2	-0.000720834	4.60509e-06
2	0	0	1	1	21.2537	-0.300577	-0.301443	-0.0181039	2	-0.000723263	5.45731e-06
2	0	0	0	1	21.3935	-0.314572	-0.315422	-0.0202063	2	-0.000725983	6.37352e-06
2	0	0	0	1	21.5335	-0.328567	-0.329444	-0.0223019	2	-0.000728998	7.34722e-06
2	0	0	0	1	21.6735	-0.342562	-0.343424	-0.024392	2	-0.000732304	8.3768e-06
2	0	0	0	1	21.8135	-0.356557	-0.357419	-0.0265152	2	-0.000735905	9.47703e-06
2	0	0	1	1	21.9533	-0.370552	-0.371423	-0.028723	2	-0.000739804	1.06684e-05
2	0	0	1	1	22.0933	-0.384547	-0.3854	-0.0309482	2	-0.000744019	1.19274e-05
2	0	0	1	1	22.2333	-0.398542	-0.399414	-0.0331985	2	-0.000748549	1.326e-05
2	0	0	1	1	22.3733	-0.412537	-0.413416	-0.0354387	2	-0.000753393	1.46509e-05
2	0	0	0	1	22.5131	-0.426532	-0.427422	-0.0375474	2	-0.000758534	1.60486e-05
2	0	0	0	1	22.6531	-0.440527	-0.441407	-0.0394798	2	-0.000763967	1.74267e-05
2	0	0	0	1	22.7931	-0.454522	-0.4554	-0.0412707	2	-0.000769661	1.87947e-05
2	0	0	0	1	22.9331	-0.468517	-0.469383	-0.042866	2	-0.000775589	2.01205e-05
2	0	0	1	1	23.0729	-0.482512	-0.483406	-0.0442565	2	-0.000781718	2.13939e-05
2	0	0	1	1	23.2129	-0.496507	-0.497374	-0.0455098	2	-0.000788041	2.26354e-05
2	0	0	1	1	23.3529	-0.510502	-0.511382	-0.046626	2	-0.00079453	2.38437e-05
2	0	0	1	1	23.4929	-0.524497	-0.525379	-0.0476579	2	-0.00080117	2.50385e-05
2	0	0	0	1	23.6327	-0.538492	-0.539361	-0.0486365	2	-0.000807939	2.62326e-05
2	0	0	0	1	23.7727	-0.552487	-0.553362	-0.0495059	2	-0.000814848	2.73947e-05
2	0	0	0	1	23.9127	-0.566482	-0.567349	-0.0504006	2	-0.000821878	2.85947e-05
2	0	0	0	1	24.0527	-0.580477	-0.581365	-0.0511933	2	-0.000829028	2.9762e-05
2	0	0	1	1	24.1925	-0.594472	-0.595343	-0.0520517	2	-0.000836284	3.09886e-05
2	0	0	1	1	24.3325	-0.608467	-0.609332	-0.0528638	2	-0.000843668	3.22116e-05
2	0	0	1	1	24.4725	-0.622462	-0.623348	-0.0537915	2	-0.000851172	3.35308e-05
2	0	0	1	1	24.6125	-0.636457	-0.637354	-0.054706	2	-0.000858804	3.48671e-05
2	0	0	0	1	24.7523	-0.650452	-0.651315	-0.0557124	2	-0.00086656	3.62863e-05
2	0	0	0	1	24.8923	-0.664447	-0.665323	-0.0568491	2	-0.000874478	3.7823e-05
2	0	0	0	1	25.0323	-0.678442	-0.679341	-0.0581199	2	-0.000882562	3.94832e-05
2	0	0	0	1	25.1723	-0.692437	-0.693318	-0.0595847	2	-0.000890836	4.13112e-05
2	0	0	1	1	25.3121	-0.706432	-0.707305	-0.0612837	2	-0.000899317	4.33463e-05
2	0	0	1	1	25.4521	-0.720427	-0.72131	-0.0632145	2	-0.000908064	4.55973e-05
2	0	0	1	1	25.5921	-0.734422	-0.73531	-0.0655184	2	-0.000917107	4.81763e-05
2	0	0	1	1	25.7321	-0.748417	-0.749281	-0.0682296	2	-0.000926502	5.11232e-05
2	0	0	0	1	25.8719	-0.762412	-0.76328	-0.0715514	2	-0.000936307	5.46138e-05
2	0	0	0	1	26.0119	-0.776407	-0.777282	-0.0756544	2	-0.000946641	5.88048e-05
2	0	0	0	1	26.1519	-0.790402	-0.791282	-0.0806247	2	-0.000957607	6.37969e-05
2	0	0	0	1	26.2919	-0.804397	-0.805272	-0.0867495	2	-0.000969347	6.9857e-05
2	0	0	1	1	26.4317	-0.818392	-0.819283	-0.0941761	2	-0.000982014	7.71568e-05
2	0	0	1	1	26.5872	-0.833936	-0.834824	-0.103942	2	-0.000997443	8.67732e-05
2	0	0	0	1	26.7427	-0.849481	-0.850323	-0.115811	2	-0.00101454	9.84764e-05
2	0	0	0	1	26.8827	-0.863476	-0.864321	-0.128833	2	-0.00103172	0.000111353
2	0	0	1	1	27.0225	-0.877471	-0.878299	-0.144331	2	-0.00105087	0.000126766
2	0	0	1	1	27.1625	-0.891466	-0.892316	-0.162744	2	-0.00107242	0.000145219
2	1	0	0	0	27.2939	-0.895464	-0.896295	-0.162644	2	-0.0010946	0.000145777
2	1	0	0	0	27.4339	-0.881469	-0.882311	-0.137645	2	-0.00111546	0.000121445
2	1	0	0	0	27.5739	-0.867474	-0.868308	-0.117813	2	-0.00113321	0.000102298
2	1	0	1	0	27.7137	-0.853479	-0.854301	-0.101486	2	-0.00114843	8.67e-05
2	1	0	1	0	27.8537	-0.839484	-0.840321	-0.0877348	2	-0.00116156	7.37254e-05
2	1	0	1	0	27.9937	-0.825489	-0.826304	-0.0762525	2	-0.00117294	6.30078e-05
2	1	0	1	0	28.1337	-0.811494	-0.812322	-0.0665908	2	-0.00118284	5.40931e-05
2	1	0	0	0	28.2735	-0.797499	-0.79833	-0.0585482	2	-0.00119149	4.67408e-05
2	1	0	0	0	28.4135	-0.783504	-0.784338	-0.0518126	2	-0.00119912	4.06386e-05
2	1	0	0	0	28.5835	-0.76651	-0.767324	-0.0450031	2	-0.00120729	3.4532e-05
2	1	0	1	0	28.7233	-0.752515	-0.753332	-0.0404473	2	-0.00121322	3.04702e-05
2	1	0	1	0	28.8633	-0.738521	-0.739349	-0.0368156	2	-0.00121859	2.72196e-05
2	1	0	1	0	29.0033	-0.724526	-0.725343	-0.0337948	2	-0.00122349	2.45128e-05
2	1	0	1	0	29.1433	-0.710531	-0.711353	-0.0313093	2	-0.001228	2.2272e-05
2	1	0	0	0	29.2831	-0.696536	-0.697356	-0.0291865	2	-0.00123219	2.03534e-05
2	1	0	0	0	29.4231	-0.68254	-0.683354	-0.0275032	2	-0.00123612	1.87944e-05
2	1	0	0	0	29.5631	-0.668545	-0.669364	-0.0260733	2	-0.00123983	1.74525e-05
2	1	0	0	0	29.7031	-0.654551	-0.655364	-0.0248272	2	-0.00124335	1.62709e-05
2	1	0	1	0	29.8429	-0.640556	-0.64137	-0.0237411	2	-0.00124671	1.52268e-05
2	1	0	1	0	29.9829	-0.626561	-0.627392	-0.0227398	2	-0.00124991	1.42668e-05
2	1	0	1	0	30.1229	-0.612565	-0.613383	-0.0217358	2	-0.00125299	1.33324e-05
2	1	0	1	0	30.2629	-0.59857	-0.599363	-0.0207502	2	-0.00125592	1.24369e-05
2	1	0	0	0	30.4027	-0.584575	-0.585383	-0.0198526	2	-0.00125873	1.16214e-05
2	1	0	0	0	30.5427	-0.570581	-0.571385	-0.0189032	2	-0.0012614	1.0801e-05
2	1	0	0	0	30.6827	-0.556586	-0.557396	-0.0179647	2	-0.00126394	1.00134e-05
2	1	0	0	0	30.8227	-0.542591	-0.543397	-0.0169509	2	-0.00126635	9.21106e-06
2	1	0	1	0	30.9625	-0.528596	-0.529411	-0.0159544	2	-0.00126861	8.44644e-06
2	1	0	1	0	31.1025	-0.514601	-0.515411	-0.0149178	2	-0.00127073	7.6888e-06
2	1	0	1	0	31.2425	-0.500606	-0.501411	-0.0138509	2	-0.0012727	6.94498e-06
2	1	0	1	0	31.3825	-0.48661	-0.487404	-0.0127176	2	-0.00127452	6.19859e-06
2	1	0	0	0	31.5223	-0.472616	-0.473404	-0.0115152	2	-0.00127618	5.45131e-06
2	1	0	0	0	31.6623	-0.458621	-0.459412	-0.0102665	2	-0.00127766	4.71656e-06
2	1	0	0	0	31.8023	-0.444626	-0.445404	-0.00900289	2	-0.00127898	4.00993e-06
2	1	0	0	0	31.9423	-0.430631	-0.431443	-0.00760644	2	-0.0012801	3.28175e-06
2	1	0	1	0	32.0821	-0.416635	-0.41744	-0.00623876	2	-0.00128104	2.60431e-06
2	1	0	1	0	32.2221	-0.40264	-0.403408	-0.00485089	2	-0.00128177	1.95689e-06
2	1	0	0	0	32.3931	-0.385547	-0.386318	-0.00290851	2	-0.00128241	1.12361e-06
2	1	0	0	0	32.5331	-0.371552	-0.372337	-0.00154147	2	-0.00128272	5.73945e-07
2	1	0	1	0	32.6729	-0.357557	-0.358333	-0.000186829	2	-0.00128283	6.6947e-08
2	1	0	1	0	32.8129	-0.343562	-0.344341	0.00114769	2	-0.00128277	3.95197e-07
2	1	0	1	0	32.9529	-0.329567	-0.330336	0.00243179	2	-0.00128252	8.03307e-07
2	1	0	1	0	33.0929	-0.315572	-0.316336	0.00376788	2	-0.00128208	1.19192e-06
2	1	0	0	0	33.2327	-0.301577	-0.302337	0.00513443	2	-0.00128146	1.55233e-06
2	1	0	0	0	33.3727	-0.287582	-0.28833	0.00656859	2	-0.00128064	1.89392e-06
2	1	0	0	0	33.5127	-0.273587	-0.274359	0.00807427	2	-0.00127961	2.21525e-06
2	1	0	0	0	33.6527	-0.259592	-0.26036	0.00970837	2	-0.00127836	2.52767e-06
2	1	0	0	0	33.8235	-0.242498	-0.243276	0.0115511	2	-0.00127653	2.8101e-06
2	1	0	0	0	33.9635	-0.228503	-0.22931	0.0133163	2	-0.00127475	3.05357e-06
2	1	0	0	0	34.1035	-0.214508	-0.215274	0.0151354	2	-0.00127272	3.25827e-06
2	1	0	0	0	34.2435	-0.200513	-0.201305	0.0168753	2	-0.00127043	3.39708e-06
2	1	0	1	0	34.3833	-0.186518	-0.187283	0.0186205	2	-0.00126791	3.48731e-06
2	1	0	1	0	34.5233	-0.172523	-0.173305	0.0200917	2	-0.00126515	3.48199e-06
2	1	0	1	0	34.6633	-0.158528	-0.159283	0.0211321	2	-0.00126222	3.36599e-06
2	1	0	1	0	34.8033	-0.144533	-0.145304	0.0215785	2	-0.00125918	3.13544e-06
2	1	0	0	0	34.9431	-0.130538	-0.131295	0.0213206	2	-0.00125614	2.79929e-06
2	1	0	0	0	35.0831	-0.116543	-0.117331	0.0204889	2	-0.00125316	2.40399e-06
2	1	0	0	0	35.2231	-0.102548	-0.103322	0.0192156	2	-0.00125034	1.98539e-06
2	1	0	0	0	35.3631	-0.0885528	-0.0893268	0.0177507	2	-0.00124771	1.58561e-06
2	1	0	1	0	35.5029	-0.0745578	-0.0753272	0.0164493	2	-0.00124528	1.23908e-06
2	1	0	1	0	35.6429	-0.0605627	-0.0613196	0.0152763	2	-0.00124303	9.36735e-07
2	1	0	1	0	35.7829	-0.0465677	-0.047345	0.0143483	2	-0.00124092	6.79321e-07
2	1	0	1	0	35.9229	-0.0325727	-0.0333456	0.0136394	2	-0.00123892	4.54814e-07
2	1	0	1	0	35.9918	-0.0256782	-0.0264545	0.0134035	2	-0.00123797	3.54584e-07