File: TAP_Report/Data/Res_growth/mg5_2_2.mpt
EC-Lab ASCII FILE
Nb header lines : 54

Cyclic Voltammetry

Run on channel : 1 (SN 0696)
User :
Electrode connection : standard
Ewe ctrl range : min = -2.50 V, max = 2.50 V
Ewe,I filtering : 50 kHz
Channel : Grounded
Acquisition started on : 01/18/2017 14:39:24
Saved on :
	File : mg5_2.mpr
	Directory : H:\EC-Lab\Data\Resazurin Bulk 18-1-17\
	Host : 144.32.136.43
Device : SP-300 (SN 0182)
Address : USB
EC-Lab for windows v10.44 (software)
Internet server v10.44 (firmware)
Command interpretor v10.44 (firmware)
Electrode material :
Initial state :
Electrolyte :
Comments :
Cable : standard
Reference electrode : SCE Saturated Calomel Electrode (0.241 V)
Electrode surface area : 0.001 cm²
Characteristic mass : 0.001 g
Equivalent Weight : 0.000 g/eq.
Density : 0.000 g/cm3
Ei (V)              0.000
vs.                 Eoc
dE/dt               100.000
dE/dt unit          mV/s
E1 (V)              0.000
vs.                 Ref
Step percent        50
N                   10
E range min (V)     -2.500
E range max (V)     2.500
I Range             Auto
I Range min         Unset
I Range max         Unset
I Range init        Unset
Bandwidth           8
E2 (V)              -0.900
vs.                 Ref
nc cycles           2
Reverse Scan        1
Ef (V)              0.000
vs.                 Eoc

mode	ox/red	error	control changes	counter inc.	time/s	control/V	Ewe/V	<I>/mA	cycle number	(Q-Qo)/C	P/W
2	1	0	0	1	17.9966	-0.0518159	-0.0525842	0.0163565	2	-0.00059876	8.60092e-07
2	1	0	1	1	18.1321	-0.0382707	-0.0390659	0.0153014	2	-0.000596576	5.97763e-07
2	1	0	1	1	18.2721	-0.0242757	-0.0250685	0.014365	2	-0.000594464	3.60109e-07
2	1	0	1	1	18.4121	-0.0102807	-0.0110773	0.0137249	2	-0.00059246	1.52036e-07
2	0	0	1	1	18.5405	-0.00258347	-0.00343018	0.0101013	2	-0.000590769	3.46492e-08
2	0	0	1	1	18.6805	-0.0165785	-0.0174268	0.00661972	2	-0.000589679	1.15361e-07
2	0	0	1	1	18.8205	-0.0305735	-0.031398	0.00480406	2	-0.00058893	1.50838e-07
2	0	0	0	1	18.9915	-0.0476674	-0.0485167	0.0029304	2	-0.000588297	1.42173e-07
2	0	0	1	1	19.1313	-0.0616624	-0.0625127	0.00197481	2	-0.000587958	1.23451e-07
2	0	0	1	1	19.2713	-0.0756574	-0.0765121	0.00117669	2	-0.000587741	9.00307e-08
2	0	0	1	1	19.4113	-0.0896524	-0.0905076	0.000487765	2	-0.000587627	4.41465e-08
2	0	0	1	1	19.5513	-0.103647	-0.104514	-0.000153226	2	-0.000587606	1.60142e-08
2	0	0	0	1	19.6911	-0.117642	-0.118518	-0.000761156	2	-0.000587672	9.02106e-08
2	0	0	0	1	19.8311	-0.131637	-0.132535	-0.00136155	2	-0.000587822	1.80452e-07
2	0	0	0	1	19.9711	-0.145632	-0.146508	-0.00201642	2	-0.00058806	2.95422e-07
2	0	0	0	1	20.1111	-0.159627	-0.160488	-0.00275193	2	-0.000588395	4.41653e-07
2	0	0	1	1	20.2509	-0.173622	-0.174504	-0.00358811	2	-0.000588838	6.26141e-07
2	0	0	1	1	20.3909	-0.187617	-0.188501	-0.00457945	2	-0.000589409	8.63233e-07
2	0	0	1	1	20.5309	-0.201612	-0.202513	-0.00576062	2	-0.000590132	1.1666e-06
2	0	0	1	1	20.6709	-0.215607	-0.216513	-0.00715676	2	-0.000591035	1.54953e-06
2	0	0	0	1	20.8107	-0.229602	-0.230522	-0.00874794	2	-0.000592148	2.01659e-06
2	0	0	1	1	20.9817	-0.246696	-0.247588	-0.0105395	2	-0.000593824	2.60946e-06
2	0	0	1	1	21.1217	-0.260691	-0.26159	-0.0123198	2	-0.000595468	3.22272e-06
2	0	0	1	1	21.2617	-0.274686	-0.275562	-0.0140241	2	-0.000597355	3.86453e-06
2	0	0	0	1	21.4015	-0.288681	-0.289553	-0.0156711	2	-0.00059947	4.53762e-06
2	0	0	0	1	21.5415	-0.302676	-0.303548	-0.0170872	2	-0.000601804	5.18677e-06
2	0	0	0	1	21.6815	-0.316671	-0.317556	-0.0185354	2	-0.00060434	5.88603e-06
2	0	0	0	1	21.8215	-0.330666	-0.331565	-0.0199	2	-0.000607068	6.59814e-06
2	0	0	1	1	21.9613	-0.344661	-0.345548	-0.021208	2	-0.00060998	7.32837e-06
2	0	0	1	1	22.1013	-0.358656	-0.359542	-0.0225316	2	-0.000613083	8.10106e-06
2	0	0	1	1	22.2413	-0.372651	-0.373535	-0.0239349	2	-0.000616375	8.94052e-06
2	0	0	1	1	22.3813	-0.386646	-0.387509	-0.025291	2	-0.00061986	9.80049e-06
2	0	0	0	1	22.5211	-0.400641	-0.401534	-0.0266493	2	-0.000623531	1.07006e-05
2	0	0	0	1	22.6611	-0.414636	-0.415525	-0.0279036	2	-0.000627391	1.15946e-05
2	0	0	0	1	22.8011	-0.428631	-0.429537	-0.0290989	2	-0.000631423	1.2499e-05
2	0	0	0	1	22.9411	-0.442626	-0.443495	-0.0301348	2	-0.000635613	1.33646e-05
2	0	0	1	1	23.0809	-0.456621	-0.457503	-0.031126	2	-0.000639938	1.42403e-05
2	0	0	1	1	23.2209	-0.470616	-0.471501	-0.0319482	2	-0.000644395	1.50636e-05
2	0	0	1	1	23.3609	-0.484611	-0.485498	-0.0327279	2	-0.000648965	1.58894e-05
2	0	0	1	1	23.5009	-0.498606	-0.499488	-0.0334284	2	-0.000653636	1.6697e-05
2	0	0	0	1	23.6407	-0.512601	-0.513479	-0.0340599	2	-0.000658395	1.7489e-05
2	0	0	0	1	23.7807	-0.526596	-0.527481	-0.0346687	2	-0.000663246	1.82871e-05
2	0	0	0	1	23.9207	-0.540591	-0.541479	-0.0352516	2	-0.00066818	1.9088e-05
2	0	0	0	1	24.0607	-0.554586	-0.555463	-0.0357827	2	-0.000673193	1.9876e-05
2	0	0	1	1	24.2005	-0.568581	-0.569448	-0.0363535	2	-0.000678278	2.07014e-05
2	0	0	1	1	24.3405	-0.582576	-0.583456	-0.0369773	2	-0.000683451	2.15746e-05
2	0	0	1	1	24.4805	-0.596571	-0.597464	-0.0375892	2	-0.000688709	2.24582e-05
2	0	0	1	1	24.6205	-0.610566	-0.611447	-0.0383011	2	-0.000694061	2.34191e-05
2	0	0	0	1	24.7603	-0.624561	-0.625441	-0.0390987	2	-0.00069951	2.44539e-05
2	0	0	0	1	24.9003	-0.638556	-0.63944	-0.0400184	2	-0.000705085	2.55894e-05
2	0	0	0	1	25.0403	-0.652551	-0.65344	-0.041067	2	-0.000710797	2.68348e-05
2	0	0	0	1	25.1803	-0.666546	-0.667438	-0.0423199	2	-0.000716673	2.82459e-05
2	0	0	1	1	25.3201	-0.680541	-0.681444	-0.0438395	2	-0.000722733	2.98742e-05
2	0	0	1	1	25.4601	-0.694536	-0.695428	-0.0456038	2	-0.000729032	3.17141e-05
2	0	0	1	1	25.6001	-0.708531	-0.709425	-0.0477601	2	-0.000735605	3.38822e-05
2	0	0	1	1	25.7401	-0.722526	-0.72343	-0.0503894	2	-0.000742508	3.64532e-05
2	0	0	0	1	25.8799	-0.736521	-0.737423	-0.0534684	2	-0.000749797	3.94288e-05
2	0	0	0	1	26.0199	-0.750516	-0.751417	-0.0572241	2	-0.000757572	4.29991e-05
2	0	0	0	1	26.1599	-0.764511	-0.765404	-0.0617312	2	-0.000765927	4.72493e-05
2	0	0	0	1	26.2999	-0.778506	-0.779431	-0.067229	2	-0.00077498	5.24004e-05
2	0	0	1	1	26.4397	-0.792501	-0.793426	-0.0737101	2	-0.000784858	5.84835e-05
2	0	0	1	1	26.5797	-0.806496	-0.807408	-0.0813646	2	-0.000795738	6.56944e-05
2	0	0	1	1	26.7197	-0.820491	-0.821414	-0.090359	2	-0.000807783	7.42221e-05
2	0	0	1	1	26.8597	-0.834486	-0.835418	-0.100837	2	-0.000821186	8.42413e-05
2	0	0	1	1	27.0305	-0.85158	-0.852448	-0.115416	2	-0.000839643	9.8386e-05
2	0	0	1	1	27.1705	-0.865575	-0.86645	-0.130076	2	-0.000856884	0.000112705
2	0	0	1	1	27.3105	-0.87957	-0.880444	-0.147054	2	-0.000876332	0.000129473
2	0	0	0	1	27.4503	-0.893565	-0.894446	-0.166901	2	-0.00089832	0.000149284
2	1	0	1	0	27.5809	-0.893465	-0.894341	-0.15964	2	-0.000920449	0.000142773
2	1	0	0	0	27.7207	-0.87947	-0.880335	-0.134738	2	-0.000940873	0.000118615
2	1	0	0	0	27.8607	-0.865475	-0.86635	-0.114624	2	-0.000958208	9.93043e-05
2	1	0	0	0	28.0007	-0.85148	-0.852344	-0.0977754	2	-0.000972963	8.33383e-05
2	1	0	0	0	28.1407	-0.837485	-0.838367	-0.0835492	2	-0.000985555	7.00449e-05
2	1	0	1	0	28.2805	-0.82349	-0.824354	-0.0715373	2	-0.000996301	5.89721e-05
2	1	0	1	0	28.4205	-0.809495	-0.810378	-0.0613994	2	-0.00100552	4.97567e-05
2	1	0	1	0	28.5605	-0.7955	-0.796355	-0.0528182	2	-0.00101342	4.2062e-05
2	1	0	1	0	28.7005	-0.781505	-0.782356	-0.0455393	2	-0.00102023	3.56279e-05
2	1	0	1	0	28.8713	-0.764411	-0.765263	-0.0382037	2	-0.00102732	2.92359e-05
2	1	0	1	0	29.0113	-0.750416	-0.751268	-0.0332503	2	-0.00103228	2.49799e-05
2	1	0	1	0	29.1513	-0.736421	-0.737265	-0.0291512	2	-0.0010366	2.14921e-05
2	1	0	0	0	29.2911	-0.722426	-0.72327	-0.0257243	2	-0.00104039	1.86056e-05
2	1	0	0	0	29.4311	-0.708431	-0.709265	-0.022913	2	-0.00104375	1.62514e-05
2	1	0	0	0	29.5711	-0.694436	-0.695262	-0.020602	2	-0.00104675	1.43238e-05
2	1	0	0	0	29.7111	-0.680441	-0.681293	-0.0186892	2	-0.00104946	1.27329e-05
2	1	0	1	0	29.8509	-0.666446	-0.667304	-0.0171649	2	-0.00105192	1.14542e-05
2	1	0	1	0	29.9909	-0.652451	-0.653305	-0.0158393	2	-0.00105419	1.03479e-05
2	1	0	1	0	30.1309	-0.638456	-0.63932	-0.0147728	2	-0.00105629	9.44454e-06
2	1	0	1	0	30.2709	-0.624461	-0.625312	-0.0137855	2	-0.00105824	8.62026e-06
2	1	0	0	0	30.4107	-0.610466	-0.611303	-0.0129067	2	-0.00106007	7.88991e-06
2	1	0	0	0	30.5507	-0.596471	-0.597295	-0.0121823	2	-0.00106179	7.27639e-06
2	1	0	0	0	30.6907	-0.582476	-0.583314	-0.0114588	2	-0.00106341	6.68405e-06
2	1	0	0	0	30.8307	-0.568481	-0.569318	-0.0108156	2	-0.00106492	6.15749e-06
2	1	0	1	0	30.9705	-0.554486	-0.555333	-0.0100846	2	-0.00106635	5.60029e-06
2	1	0	1	0	31.1105	-0.540491	-0.541299	-0.00941685	2	-0.00106767	5.09733e-06
2	1	0	1	0	31.2505	-0.526496	-0.527338	-0.00875056	2	-0.00106891	4.6145e-06
2	1	0	1	0	31.3905	-0.512501	-0.51334	-0.00806549	2	-0.00107005	4.14033e-06
2	1	0	0	0	31.5303	-0.498506	-0.499322	-0.00732388	2	-0.00107108	3.65697e-06
2	1	0	0	0	31.6703	-0.484511	-0.485331	-0.00654674	2	-0.00107202	3.17734e-06
2	1	0	0	0	31.8103	-0.470516	-0.47134	-0.00579962	2	-0.00107285	2.7336e-06
2	1	0	0	0	31.9653	-0.455022	-0.455855	-0.00480951	2	-0.00107364	2.19244e-06
2	1	0	1	0	32.1201	-0.439527	-0.440353	-0.00359364	2	-0.00107429	1.58247e-06
2	1	0	1	0	32.2601	-0.425532	-0.426362	-0.00263396	2	-0.00107472	1.12302e-06
2	1	0	1	0	32.4001	-0.411537	-0.412359	-0.00161377	2	-0.00107502	6.65452e-07
2	1	0	1	0	32.5401	-0.397542	-0.398349	-0.000565137	2	-0.00107517	2.25122e-07
2	1	0	0	0	32.6799	-0.383547	-0.384336	0.000490804	2	-0.00107518	1.88634e-07
2	1	0	0	0	32.8199	-0.369552	-0.370354	0.00155006	2	-0.00107503	5.7407e-07
2	1	0	0	0	32.9599	-0.355557	-0.356355	0.00258495	2	-0.00107474	9.2116e-07
2	1	0	0	0	33.0999	-0.341562	-0.342349	0.00362536	2	-0.00107431	1.24114e-06
2	1	0	1	0	33.2397	-0.327567	-0.328351	0.00467199	2	-0.00107373	1.53405e-06
2	1	0	1	0	33.3797	-0.313572	-0.314354	0.0057286	2	-0.001073	1.80081e-06
2	1	0	1	0	33.5197	-0.299577	-0.300331	0.00685288	2	-0.00107212	2.05814e-06
2	1	0	1	0	33.6597	-0.285582	-0.286356	0.00807483	2	-0.00107107	2.31228e-06
2	1	0	0	0	33.7995	-0.271587	-0.272368	0.00940465	2	-0.00106985	2.56152e-06
2	1	0	1	0	33.9705	-0.254493	-0.255298	0.0109509	2	-0.00106809	2.79575e-06
2	1	0	1	0	34.1105	-0.240498	-0.241287	0.0125311	2	-0.00106641	3.0236e-06
2	1	0	1	0	34.2505	-0.226503	-0.227306	0.0142011	2	-0.0010645	3.228e-06
2	1	0	0	0	34.3903	-0.212508	-0.213297	0.0159521	2	-0.00106235	3.40255e-06
2	1	0	0	0	34.5303	-0.198513	-0.199291	0.0177028	2	-0.00105995	3.52801e-06
2	1	0	0	0	34.6703	-0.184518	-0.185295	0.0194953	2	-0.0010573	3.61237e-06
2	1	0	0	0	34.8103	-0.170523	-0.171314	0.0212485	2	-0.00105441	3.64017e-06
2	1	0	1	0	34.9501	-0.156528	-0.157309	0.0226888	2	-0.0010513	3.56916e-06
2	1	0	1	0	35.0901	-0.142533	-0.143316	0.0237637	2	-0.001048	3.40572e-06
2	1	0	1	0	35.2301	-0.128538	-0.129312	0.0241805	2	-0.00104459	3.12684e-06
2	1	0	1	0	35.3701	-0.114543	-0.115353	0.0238668	2	-0.00104118	2.7531e-06
2	1	0	0	0	35.5099	-0.100548	-0.101321	0.0229254	2	-0.00103786	2.32283e-06
2	1	0	0	0	35.6499	-0.0865535	-0.0873186	0.0214614	2	-0.00103471	1.87398e-06
2	1	0	0	0	35.7899	-0.0725585	-0.0733485	0.0199082	2	-0.00103177	1.46024e-06
2	1	0	0	0	35.9299	-0.0585635	-0.0593194	0.018355	2	-0.00102906	1.08881e-06
2	1	0	1	0	35.9957	-0.0519658	-0.0527215	0.0177625	2	-0.00102785	9.36466e-07