File: TAP_Report/Data/Res_growth/mg5_3_2.mpt
EC-Lab ASCII FILE
Nb header lines : 54

Cyclic Voltammetry

Run on channel : 1 (SN 0696)
User :
Electrode connection : standard
Ewe ctrl range : min = -2.50 V, max = 2.50 V
Ewe,I filtering : 50 kHz
Channel : Grounded
Acquisition started on : 01/18/2017 14:42:49
Saved on :
	File : mg5_3.mpr
	Directory : H:\EC-Lab\Data\Resazurin Bulk 18-1-17\
	Host : 144.32.136.43
Device : SP-300 (SN 0182)
Address : USB
EC-Lab for windows v10.44 (software)
Internet server v10.44 (firmware)
Command interpretor v10.44 (firmware)
Electrode material :
Initial state :
Electrolyte :
Comments :
Cable : standard
Reference electrode : SCE Saturated Calomel Electrode (0.241 V)
Electrode surface area : 0.001 cm²
Characteristic mass : 0.001 g
Equivalent Weight : 0.000 g/eq.
Density : 0.000 g/cm3
Ei (V)              0.000
vs.                 Eoc
dE/dt               100.000
dE/dt unit          mV/s
E1 (V)              0.000
vs.                 Ref
Step percent        50
N                   10
E range min (V)     -2.500
E range max (V)     2.500
I Range             Auto
I Range min         Unset
I Range max         Unset
I Range init        Unset
Bandwidth           8
E2 (V)              -0.900
vs.                 Ref
nc cycles           2
Reverse Scan        1
Ef (V)              0.000
vs.                 Eoc

mode	ox/red	error	control changes	counter inc.	time/s	control/V	Ewe/V	<I>/mA	cycle number	(Q-Qo)/C	P/W
2	1	0	0	1	18.0011	-0.0435688	-0.0443384	0.014572	2	-0.000744411	6.46101e-07
2	1	0	0	1	18.1411	-0.0295738	-0.0303528	0.0136651	2	-0.000742399	4.14774e-07
2	1	0	0	1	18.2811	-0.0155788	-0.0163729	0.0130774	2	-0.000740493	2.14115e-07
2	1	0	0	1	18.4211	-0.00158383	-0.00237163	0.0126001	2	-0.00073866	2.98828e-08
2	0	0	1	1	18.5525	-0.0115803	-0.0124131	0.00673486	2	-0.000737531	8.36008e-08
2	0	0	1	1	18.6925	-0.0255753	-0.0264049	0.00461815	2	-0.000736787	1.21942e-07
2	0	0	1	1	18.8625	-0.0425692	-0.0434094	0.00267758	2	-0.000736177	1.16232e-07
2	0	0	0	1	19.0023	-0.0565642	-0.0574126	0.00168683	2	-0.000735876	9.68452e-08
2	0	0	0	1	19.1423	-0.0705592	-0.0714026	0.000866648	2	-0.000735701	6.1881e-08
2	0	0	0	1	19.2823	-0.0845542	-0.0854058	0.000168678	2	-0.000735631	1.44061e-08
2	0	0	0	1	19.4223	-0.0985492	-0.0993974	-0.000463357	2	-0.000735654	4.60564e-08
2	0	0	1	1	19.5621	-0.112544	-0.113396	-0.00106893	2	-0.000735763	1.21212e-07
2	0	0	1	1	19.7021	-0.126539	-0.127386	-0.00164018	2	-0.000735954	2.08936e-07
2	0	0	1	1	19.8421	-0.140534	-0.141392	-0.0022726	2	-0.000736229	3.21327e-07
2	0	0	1	1	19.9821	-0.154529	-0.15538	-0.00293035	2	-0.000736594	4.55317e-07
2	0	0	0	1	20.1219	-0.168524	-0.169393	-0.00371493	2	-0.00073706	6.29284e-07
2	0	0	0	1	20.2619	-0.182519	-0.183376	-0.00462711	2	-0.000737644	8.48502e-07
2	0	0	0	1	20.4019	-0.196514	-0.197384	-0.00574952	2	-0.00073837	1.13487e-06
2	0	0	0	1	20.5419	-0.210509	-0.211365	-0.00707163	2	-0.000739265	1.4947e-06
2	0	0	1	1	20.6817	-0.224504	-0.225384	-0.00858011	2	-0.000740361	1.93382e-06
2	0	0	1	1	20.8372	-0.240049	-0.240927	-0.0103087	2	-0.000741843	2.48365e-06
2	0	0	0	1	20.9927	-0.255593	-0.256471	-0.0120599	2	-0.000743613	3.09301e-06
2	0	0	1	1	21.1325	-0.269588	-0.270463	-0.0137784	2	-0.00074546	3.72654e-06
2	0	0	1	1	21.2725	-0.283583	-0.284457	-0.0153663	2	-0.00074754	4.37104e-06
2	0	0	1	1	21.4125	-0.297578	-0.298432	-0.0169214	2	-0.00074984	5.04988e-06
2	0	0	1	1	21.5525	-0.311573	-0.312449	-0.0183752	2	-0.00075235	5.74131e-06
2	0	0	0	1	21.6923	-0.325568	-0.326422	-0.0198457	2	-0.000755061	6.47807e-06
2	0	0	0	1	21.8323	-0.339563	-0.340433	-0.0212953	2	-0.000757978	7.24961e-06
2	0	0	0	1	21.9723	-0.353558	-0.354419	-0.022759	2	-0.000761102	8.06624e-06
2	0	0	0	1	22.1123	-0.367553	-0.368406	-0.0243366	2	-0.000764438	8.96575e-06
2	0	0	1	1	22.2521	-0.381548	-0.382421	-0.0259302	2	-0.000767989	9.91625e-06
2	0	0	1	1	22.3921	-0.395543	-0.39641	-0.0275248	2	-0.00077177	1.09111e-05
2	0	0	1	1	22.5321	-0.409538	-0.410423	-0.0291559	2	-0.000775778	1.19662e-05
2	0	0	1	1	22.6721	-0.423533	-0.424411	-0.0307119	2	-0.000780006	1.30345e-05
2	0	0	0	1	22.8119	-0.437528	-0.438415	-0.032163	2	-0.00078444	1.41007e-05
2	0	0	0	1	22.9519	-0.451523	-0.4524	-0.0335201	2	-0.00078908	1.51645e-05
2	0	0	0	1	23.0919	-0.465518	-0.466382	-0.0348859	2	-0.000793908	1.62702e-05
2	0	0	0	1	23.2319	-0.479513	-0.480374	-0.0360957	2	-0.000798914	1.73394e-05
2	0	0	1	1	23.3717	-0.493508	-0.494372	-0.0372866	2	-0.000804082	1.84334e-05
2	0	0	1	1	23.5117	-0.507503	-0.508384	-0.0384906	2	-0.000809424	1.9568e-05
2	0	0	1	1	23.6517	-0.521498	-0.522371	-0.0396629	2	-0.000814933	2.07187e-05
2	0	0	1	1	23.7917	-0.535493	-0.536367	-0.0408787	2	-0.000820609	2.1926e-05
2	0	0	0	1	23.9315	-0.549488	-0.550374	-0.042151	2	-0.00082645	2.31988e-05
2	0	0	0	1	24.0715	-0.563483	-0.564354	-0.0434791	2	-0.000832483	2.45376e-05
2	0	0	0	1	24.2115	-0.577478	-0.57835	-0.0449114	2	-0.000838705	2.59745e-05
2	0	0	0	1	24.3515	-0.591473	-0.592341	-0.0463657	2	-0.000845128	2.74643e-05
2	0	0	1	1	24.4913	-0.605468	-0.606331	-0.0478613	2	-0.000851752	2.90198e-05
2	0	0	1	1	24.6313	-0.619463	-0.620338	-0.0495103	2	-0.000858605	3.07131e-05
2	0	0	1	1	24.7713	-0.633458	-0.634331	-0.0512058	2	-0.000865691	3.24814e-05
2	0	0	1	1	24.9113	-0.647453	-0.648319	-0.0530532	2	-0.000873028	3.43954e-05
2	0	0	0	1	25.0511	-0.661448	-0.662331	-0.0551445	2	-0.000880629	3.65239e-05
2	0	0	0	1	25.1911	-0.675443	-0.676298	-0.0574403	2	-0.000888544	3.88468e-05
2	0	0	0	1	25.3311	-0.689438	-0.690298	-0.0600308	2	-0.0008968	4.14391e-05
2	0	0	0	1	25.4711	-0.703433	-0.704316	-0.0628803	2	-0.000905436	4.42876e-05
2	0	0	1	1	25.6109	-0.717428	-0.718322	-0.066101	2	-0.000914486	4.74818e-05
2	0	0	1	1	25.7509	-0.731423	-0.732302	-0.0697992	2	-0.000924031	5.11142e-05
2	0	0	1	1	25.8909	-0.745418	-0.746292	-0.0739083	2	-0.000934121	5.51572e-05
2	0	0	1	1	26.0309	-0.759413	-0.760305	-0.0787351	2	-0.000944835	5.98627e-05
2	0	0	0	1	26.1707	-0.773408	-0.774288	-0.084237	2	-0.000956251	6.52237e-05
2	0	0	0	1	26.3107	-0.787403	-0.788287	-0.0905647	2	-0.000968516	7.1391e-05
2	0	0	0	1	26.4507	-0.801398	-0.802275	-0.0979305	2	-0.000981739	7.85672e-05
2	0	0	1	1	26.6217	-0.818492	-0.819344	-0.108019	2	-0.000999367	8.85048e-05
2	0	0	0	1	26.7615	-0.832487	-0.83333	-0.118094	2	-0.00101524	9.84115e-05
2	0	0	0	1	26.9015	-0.846482	-0.847329	-0.129886	2	-0.00103266	0.000110056
2	0	0	0	1	27.0415	-0.860477	-0.861323	-0.143484	2	-0.00105186	0.000123586
2	0	0	0	1	27.1815	-0.874472	-0.875307	-0.159388	2	-0.00107312	0.000139513
2	0	0	1	1	27.3213	-0.888467	-0.889289	-0.177878	2	-0.00109674	0.000158185
2	1	0	1	0	27.4529	-0.898463	-0.899309	-0.189364	2	-0.00112144	0.000170297
2	1	0	1	0	27.5929	-0.884468	-0.885299	-0.160061	2	-0.00114566	0.000141702
2	1	0	0	0	27.7327	-0.870473	-0.871307	-0.137584	2	-0.00116631	0.000119878
2	1	0	0	0	27.8727	-0.856478	-0.857306	-0.118959	2	-0.00118414	0.000101985
2	1	0	0	0	28.0127	-0.842483	-0.843312	-0.103401	2	-0.0011996	8.71994e-05
2	1	0	0	0	28.1526	-0.828497	-0.829319	-0.0903223	2	-0.00121304	7.49061e-05
2	1	0	1	0	28.2925	-0.814493	-0.815315	-0.0791711	2	-0.00122479	6.45494e-05
2	1	0	1	0	28.4325	-0.800498	-0.801316	-0.0696695	2	-0.00123511	5.58273e-05
2	1	0	1	0	28.5725	-0.786503	-0.787319	-0.0616529	2	-0.00124421	4.85405e-05
2	1	0	1	0	28.7125	-0.772508	-0.77335	-0.0548448	2	-0.00125227	4.24142e-05
2	1	0	0	0	28.8523	-0.758513	-0.759358	-0.0490995	2	-0.00125943	3.72841e-05
2	1	0	0	0	29.0223	-0.741519	-0.742343	-0.0429321	2	-0.0012672	3.18704e-05
2	1	0	0	0	29.1623	-0.727524	-0.728351	-0.0388481	2	-0.00127288	2.82951e-05
2	1	0	1	0	29.3021	-0.713529	-0.71435	-0.0353212	2	-0.00127802	2.52317e-05
2	1	0	1	0	29.4421	-0.699534	-0.700359	-0.0322896	2	-0.00128271	2.26143e-05
2	1	0	1	0	29.5821	-0.685539	-0.686358	-0.0295785	2	-0.00128699	2.03014e-05
2	1	0	1	0	29.7221	-0.671544	-0.672357	-0.0271982	2	-0.00129093	1.82869e-05
2	1	0	0	0	29.8619	-0.657549	-0.658362	-0.0250771	2	-0.00129454	1.65098e-05
2	1	0	0	0	30.0019	-0.643554	-0.644387	-0.0231558	2	-0.00129788	1.49213e-05
2	1	0	0	0	30.1419	-0.629559	-0.63039	-0.0214039	2	-0.00130096	1.34928e-05
2	1	0	0	0	30.2819	-0.615564	-0.616396	-0.0198419	2	-0.0013038	1.22305e-05
2	1	0	1	0	30.4217	-0.601569	-0.602384	-0.0183465	2	-0.00130643	1.10517e-05
2	1	0	1	0	30.5617	-0.587574	-0.58842	-0.0169841	2	-0.00130886	9.99376e-06
2	1	0	1	0	30.7017	-0.573579	-0.574406	-0.0157512	2	-0.00131111	9.04756e-06
2	1	0	1	0	30.8417	-0.559584	-0.560405	-0.0146134	2	-0.0013132	8.18943e-06
2	1	0	0	0	30.9815	-0.545589	-0.546409	-0.0134649	2	-0.00131512	7.35732e-06
2	1	0	0	0	31.1215	-0.531594	-0.532412	-0.0124103	2	-0.0013169	6.60737e-06
2	1	0	0	0	31.2615	-0.517599	-0.518416	-0.0113877	2	-0.00131853	5.90356e-06
2	1	0	0	0	31.4015	-0.503604	-0.504418	-0.0103794	2	-0.00132002	5.23554e-06
2	1	0	1	0	31.5413	-0.489609	-0.490425	-0.00932936	2	-0.00132136	4.57535e-06
2	1	0	1	0	31.6813	-0.475614	-0.476414	-0.00834631	2	-0.00132255	3.9763e-06
2	1	0	1	0	31.8213	-0.461619	-0.46242	-0.00725369	2	-0.00132361	3.35425e-06
2	1	0	1	0	31.9613	-0.447624	-0.448428	-0.00618188	2	-0.00132451	2.77213e-06
2	1	0	0	0	32.1166	-0.43208	-0.432906	-0.00483211	2	-0.00132532	2.09185e-06
2	1	0	1	0	32.2721	-0.416536	-0.41733	-0.00336998	2	-0.00132594	1.40639e-06
2	1	0	1	0	32.4121	-0.402541	-0.403326	-0.00221277	2	-0.00132633	8.92469e-07
2	1	0	1	0	32.5521	-0.388546	-0.389339	-0.00105179	2	-0.00132656	4.09505e-07
2	1	0	0	0	32.6919	-0.374551	-0.375334	0.000105438	2	-0.00132662	3.95745e-08
2	1	0	0	0	32.8319	-0.360556	-0.361342	0.00122919	2	-0.00132653	4.44159e-07
2	1	0	0	0	32.9719	-0.346561	-0.347343	0.00233399	2	-0.00132628	8.10697e-07
2	1	0	0	0	33.1119	-0.332566	-0.33333	0.00342391	2	-0.00132587	1.14129e-06
2	1	0	1	0	33.2517	-0.318571	-0.319325	0.00454379	2	-0.00132531	1.45094e-06
2	1	0	1	0	33.3917	-0.304576	-0.305335	0.00567358	2	-0.0013246	1.73234e-06
2	1	0	1	0	33.5317	-0.290581	-0.291326	0.0069037	2	-0.00132372	2.01123e-06
2	1	0	1	0	33.6717	-0.276586	-0.277334	0.00820243	2	-0.00132266	2.27481e-06
2	1	0	0	0	33.8115	-0.262591	-0.26334	0.00959949	2	-0.00132142	2.52793e-06
2	1	0	1	0	33.9825	-0.245497	-0.246296	0.0111364	2	-0.00131962	2.74285e-06
2	1	0	1	0	34.1225	-0.231502	-0.232275	0.0128115	2	-0.0013179	2.97579e-06
2	1	0	1	0	34.2625	-0.217507	-0.218282	0.0144011	2	-0.00131596	3.14351e-06
2	1	0	0	0	34.4023	-0.203512	-0.204302	0.0161047	2	-0.00131379	3.29022e-06
2	1	0	0	0	34.5423	-0.189517	-0.190279	0.0177775	2	-0.00131138	3.38268e-06
2	1	0	0	0	34.6823	-0.175522	-0.176291	0.0193893	2	-0.00130875	3.41816e-06
2	1	0	0	0	34.8223	-0.161527	-0.162306	0.0207782	2	-0.0013059	3.37243e-06
2	1	0	1	0	34.9621	-0.147532	-0.148312	0.0218313	2	-0.00130288	3.23784e-06
2	1	0	1	0	35.1021	-0.133537	-0.134287	0.0223517	2	-0.00129974	3.00154e-06
2	1	0	1	0	35.2421	-0.119542	-0.120337	0.0221696	2	-0.00129658	2.66782e-06
2	1	0	1	0	35.3821	-0.105547	-0.106345	0.0214161	2	-0.00129348	2.27748e-06
2	1	0	0	0	35.5219	-0.0915517	-0.0923196	0.0202365	2	-0.00129052	1.86823e-06
2	1	0	0	0	35.6619	-0.0775567	-0.0783295	0.0188394	2	-0.00128775	1.47568e-06
2	1	0	0	0	35.8019	-0.0635617	-0.0643356	0.0174384	2	-0.00128518	1.12191e-06
2	1	0	0	0	35.9419	-0.0495667	-0.0503396	0.0162844	2	-0.00128278	8.19753e-07
2	1	0	0	0	35.9918	-0.0445707	-0.0453467	0.0159487	2	-0.00128196	7.23222e-07