File: TAP_Report/Data/Res_growth/mg5_1_2.mpt
EC-Lab ASCII FILE
Nb header lines : 54

Cyclic Voltammetry

Run on channel : 1 (SN 0696)
User :
Electrode connection : standard
Ewe ctrl range : min = -2.50 V, max = 2.50 V
Ewe,I filtering : 50 kHz
Channel : Grounded
Acquisition started on : 01/18/2017 14:36:20
Saved on :
	File : mg5_1.mpr
	Directory : H:\EC-Lab\Data\Resazurin Bulk 18-1-17\
	Host : 144.32.136.43
Device : SP-300 (SN 0182)
Address : USB
EC-Lab for windows v10.44 (software)
Internet server v10.44 (firmware)
Command interpretor v10.44 (firmware)
Electrode material :
Initial state :
Electrolyte :
Comments :
Cable : standard
Reference electrode : SCE Saturated Calomel Electrode (0.241 V)
Electrode surface area : 0.001 cm²
Characteristic mass : 0.001 g
Equivalent Weight : 0.000 g/eq.
Density : 0.000 g/cm3
Ei (V)              0.000
vs.                 Eoc
dE/dt               100.000
dE/dt unit          mV/s
E1 (V)              0.000
vs.                 Ref
Step percent        50
N                   10
E range min (V)     -2.500
E range max (V)     2.500
I Range             Auto
I Range min         Unset
I Range max         Unset
I Range init        Unset
Bandwidth           8
E2 (V)              -0.900
vs.                 Ref
nc cycles           2
Reverse Scan        1
Ef (V)              0.000
vs.                 Eoc

mode	ox/red	error	control changes	counter inc.	time/s	control/V	Ewe/V	<I>/mA	cycle number	(Q-Qo)/C	P/W
2	1	0	0	1	17.9974	-0.0565142	-0.0572924	0.01717	2	-0.000627687	9.83711e-07
2	1	0	1	1	18.1329	-0.042969	-0.0437322	0.0158554	2	-0.000625421	6.93392e-07
2	1	0	1	1	18.2729	-0.028974	-0.0297614	0.0148784	2	-0.000623234	4.42803e-07
2	1	0	1	1	18.4129	-0.014979	-0.0157555	0.0141632	2	-0.000621168	2.23148e-07
2	1	0	1	1	18.5528	-0.000981768	-0.00175486	0.0136701	2	-0.000619188	2.39891e-08
2	0	0	1	1	18.6681	-0.0104806	-0.0112832	0.00777363	2	-0.000618093	8.77111e-08
2	0	0	1	1	18.8081	-0.0244756	-0.0252944	0.00545401	2	-0.000617218	1.37956e-07
2	0	0	0	1	18.9791	-0.0415695	-0.0424137	0.00338483	2	-0.000616488	1.43563e-07
2	0	0	0	1	19.1191	-0.0555645	-0.0564081	0.00230237	2	-0.000616095	1.29872e-07
2	0	0	1	1	19.2589	-0.0695595	-0.0703854	0.00142224	2	-0.000615838	1.00105e-07
2	0	0	1	1	19.3989	-0.0835545	-0.0843757	0.000674074	2	-0.000615694	5.68754e-08
2	0	0	1	1	19.5389	-0.0975495	-0.098384	9.07025e-06	2	-0.000615649	8.92367e-10
2	0	0	1	1	19.6789	-0.111545	-0.112374	-0.000644558	2	-0.000615696	7.24315e-08
2	0	0	0	1	19.8187	-0.12554	-0.126385	-0.00128979	2	-0.000615832	1.6301e-07
2	0	0	0	1	19.9587	-0.139535	-0.140376	-0.00196225	2	-0.00061606	2.75452e-07
2	0	0	0	1	20.0987	-0.15353	-0.154395	-0.00270916	2	-0.000616387	4.1828e-07
2	0	0	0	1	20.2387	-0.167525	-0.168383	-0.0035824	2	-0.000616826	6.03213e-07
2	0	0	1	1	20.3785	-0.18152	-0.182371	-0.00458736	2	-0.000617397	8.36603e-07
2	0	0	1	1	20.5185	-0.195515	-0.196381	-0.00578628	2	-0.000618123	1.13631e-06
2	0	0	1	1	20.6585	-0.20951	-0.210374	-0.00722796	2	-0.000619034	1.52057e-06
2	0	0	1	1	20.7985	-0.223505	-0.224383	-0.00886585	2	-0.000620159	1.98935e-06
2	0	0	1	1	20.9693	-0.240598	-0.241447	-0.0108102	2	-0.000621858	2.61009e-06
2	0	0	1	1	21.1093	-0.254593	-0.255434	-0.0126605	2	-0.000623538	3.23392e-06
2	0	0	1	1	21.2493	-0.268588	-0.269442	-0.0145189	2	-0.000625479	3.912e-06
2	0	0	0	1	21.3891	-0.282583	-0.283436	-0.0162646	2	-0.000627669	4.60998e-06
2	0	0	0	1	21.5291	-0.296578	-0.297418	-0.0179086	2	-0.000630101	5.32634e-06
2	0	0	0	1	21.6691	-0.310573	-0.311441	-0.0194788	2	-0.000632758	6.06651e-06
2	0	0	0	1	21.8091	-0.324568	-0.325413	-0.0209687	2	-0.000635629	6.82346e-06
2	0	0	1	1	21.9489	-0.338563	-0.339397	-0.0224215	2	-0.000638701	7.60979e-06
2	0	0	1	1	22.0889	-0.352558	-0.353393	-0.0238809	2	-0.000641984	8.43934e-06
2	0	0	1	1	22.2289	-0.366553	-0.367402	-0.0254196	2	-0.000645472	9.33923e-06
2	0	0	1	1	22.3689	-0.380548	-0.381401	-0.0268841	2	-0.000649171	1.02536e-05
2	0	0	0	1	22.5087	-0.394543	-0.395382	-0.0283501	2	-0.000653071	1.12091e-05
2	0	0	0	1	22.6487	-0.408538	-0.409416	-0.029797	2	-0.000657178	1.21994e-05
2	0	0	0	1	22.7887	-0.422533	-0.423393	-0.0310406	2	-0.000661472	1.31424e-05
2	0	0	0	1	22.9287	-0.436528	-0.437386	-0.032145	2	-0.000665933	1.40598e-05
2	0	0	1	1	23.0685	-0.450523	-0.451377	-0.0330989	2	-0.000670534	1.49401e-05
2	0	0	1	1	23.2085	-0.464518	-0.465383	-0.0339204	2	-0.000675268	1.5786e-05
2	0	0	1	1	23.3485	-0.478513	-0.479387	-0.0346614	2	-0.000680109	1.66162e-05
2	0	0	1	1	23.4885	-0.492508	-0.493349	-0.0352756	2	-0.000685045	1.74032e-05
2	0	0	0	1	23.6283	-0.506503	-0.507355	-0.0358549	2	-0.000690058	1.81912e-05
2	0	0	0	1	23.7683	-0.520498	-0.521358	-0.0364325	2	-0.000695158	1.89944e-05
2	0	0	0	1	23.9083	-0.534493	-0.535358	-0.0369073	2	-0.000700332	1.97586e-05
2	0	0	0	1	24.0483	-0.548488	-0.549352	-0.0374833	2	-0.000705578	2.05915e-05
2	0	0	1	1	24.1881	-0.562483	-0.563356	-0.0380181	2	-0.00071089	2.14177e-05
2	0	0	1	1	24.3281	-0.576478	-0.577348	-0.0385418	2	-0.000716286	2.2252e-05
2	0	0	1	1	24.4681	-0.590473	-0.591321	-0.0391921	2	-0.000721763	2.31751e-05
2	0	0	1	1	24.6081	-0.604468	-0.605318	-0.039841	2	-0.000727329	2.41165e-05
2	0	0	0	1	24.7479	-0.618463	-0.619334	-0.0406215	2	-0.000732988	2.51583e-05
2	0	0	0	1	24.8879	-0.632458	-0.633333	-0.0414747	2	-0.00073877	2.62673e-05
2	0	0	0	1	25.0279	-0.646453	-0.647311	-0.0425021	2	-0.000744684	2.75121e-05
2	0	0	0	1	25.1679	-0.660448	-0.661319	-0.0437435	2	-0.000750757	2.89284e-05
2	0	0	1	1	25.3077	-0.674443	-0.675318	-0.0451974	2	-0.000757008	3.05226e-05
2	0	0	1	1	25.4477	-0.688438	-0.689304	-0.0469654	2	-0.000763494	3.23734e-05
2	0	0	1	1	25.5877	-0.702433	-0.703313	-0.0490513	2	-0.000770247	3.44984e-05
2	0	0	1	1	25.7277	-0.716428	-0.717303	-0.0515496	2	-0.000777323	3.69766e-05
2	0	0	0	1	25.8675	-0.730423	-0.731292	-0.0545962	2	-0.000784777	3.99258e-05
2	0	0	0	1	26.0075	-0.744418	-0.745293	-0.0582824	2	-0.000792708	4.34375e-05
2	0	0	0	1	26.1475	-0.758413	-0.759288	-0.0627474	2	-0.000801208	4.76433e-05
2	0	0	0	1	26.2875	-0.772408	-0.773268	-0.068126	2	-0.000810398	5.26797e-05
2	0	0	1	1	26.4273	-0.786403	-0.787268	-0.0746219	2	-0.000820403	5.87475e-05
2	0	0	1	1	26.5673	-0.800398	-0.801262	-0.0822598	2	-0.000831411	6.59117e-05
2	0	0	1	1	26.7073	-0.814393	-0.815261	-0.0912814	2	-0.000843582	7.44182e-05
2	0	0	1	1	26.8473	-0.828388	-0.829278	-0.101806	2	-0.000857117	8.44254e-05
2	0	0	1	1	27.0181	-0.845482	-0.846316	-0.116441	2	-0.000875738	9.85454e-05
2	0	0	1	1	27.1581	-0.859477	-0.860321	-0.131237	2	-0.000893132	0.000112906
2	0	0	1	1	27.2981	-0.873472	-0.874316	-0.148329	2	-0.00091275	0.000129686
2	0	0	1	1	27.4381	-0.887467	-0.888317	-0.168289	2	-0.000934961	0.000149493
2	1	0	0	0	27.5695	-0.899463	-0.900278	-0.185887	2	-0.000958521	0.00016735
2	1	0	1	0	27.7093	-0.885468	-0.886297	-0.154241	2	-0.000982015	0.000136704
2	1	0	1	0	27.8493	-0.871473	-0.872301	-0.130616	2	-0.00100181	0.000113936
2	1	0	1	0	27.9893	-0.857478	-0.858305	-0.111115	2	-0.00101861	9.53704e-05
2	1	0	1	0	28.1293	-0.843483	-0.844335	-0.0947772	2	-0.0010329	8.00236e-05
2	1	0	0	0	28.2691	-0.829488	-0.830316	-0.0809141	2	-0.00104506	6.71843e-05
2	1	0	0	0	28.4091	-0.815493	-0.816333	-0.0692129	2	-0.00105546	5.65007e-05
2	1	0	0	0	28.5491	-0.801498	-0.802317	-0.0593695	2	-0.00106436	4.76331e-05
2	1	0	0	0	28.6891	-0.787503	-0.788321	-0.0509979	2	-0.00107198	4.02027e-05
2	1	0	0	0	28.8599	-0.770409	-0.771228	-0.0424441	2	-0.00107985	3.2734e-05
2	1	0	0	0	28.9999	-0.756414	-0.757232	-0.0368014	2	-0.00108535	2.78672e-05
2	1	0	0	0	29.1399	-0.742419	-0.743235	-0.0321116	2	-0.00109013	2.38664e-05
2	1	0	0	0	29.2798	-0.728422	-0.729236	-0.0281768	2	-0.0010943	2.05475e-05
2	1	0	1	0	29.4197	-0.714429	-0.71525	-0.0249786	2	-0.00109798	1.78659e-05
2	1	0	1	0	29.5597	-0.700434	-0.701245	-0.0223258	2	-0.00110124	1.56559e-05
2	1	0	1	0	29.6997	-0.686439	-0.687258	-0.020178	2	-0.00110417	1.38675e-05
2	1	0	1	0	29.8396	-0.672442	-0.673242	-0.0183281	2	-0.00110683	1.23392e-05
2	1	0	0	0	29.9795	-0.658449	-0.659265	-0.0169253	2	-0.00110926	1.11582e-05
2	1	0	0	0	30.1195	-0.644454	-0.645278	-0.0157017	2	-0.0011115	1.01319e-05
2	1	0	0	0	30.2595	-0.630459	-0.631284	-0.014699	2	-0.00111359	9.27927e-06
2	1	0	0	0	30.3994	-0.61646	-0.617279	-0.0137357	2	-0.00111555	8.47876e-06
2	1	0	1	0	30.5393	-0.602469	-0.603278	-0.0129784	2	-0.00111738	7.82959e-06
2	1	0	1	0	30.6793	-0.588474	-0.589289	-0.0122749	2	-0.00111911	7.23346e-06
2	1	0	1	0	30.8193	-0.574479	-0.575298	-0.0115281	2	-0.00112074	6.6321e-06
2	1	0	1	0	30.9592	-0.56048	-0.561305	-0.0108235	2	-0.00112227	6.0753e-06
2	1	0	0	0	31.0991	-0.546489	-0.54731	-0.0101729	2	-0.0011237	5.56775e-06
2	1	0	0	0	31.2391	-0.532494	-0.533315	-0.00950904	2	-0.00112504	5.07131e-06
2	1	0	0	0	31.3791	-0.518499	-0.519314	-0.00881579	2	-0.00112629	4.57816e-06
2	1	0	0	0	31.519	-0.5045	-0.505312	-0.00804941	2	-0.00112743	4.06746e-06
2	1	0	1	0	31.6589	-0.490509	-0.491304	-0.00738191	2	-0.00112847	3.62676e-06
2	1	0	1	0	31.7989	-0.476514	-0.477324	-0.00655297	2	-0.00112941	3.12789e-06
2	1	0	1	0	31.9389	-0.462519	-0.463334	-0.00574188	2	-0.00113024	2.66041e-06
2	1	0	1	0	32.0788	-0.448517	-0.449323	-0.00475208	2	-0.00113094	2.13522e-06
2	1	0	1	0	32.2497	-0.43143	-0.432234	-0.00338821	2	-0.00113163	1.4645e-06
2	1	0	1	0	32.3897	-0.417435	-0.418232	-0.00234512	2	-0.00113203	9.80805e-07
2	1	0	1	0	32.5297	-0.40344	-0.404222	-0.00126794	2	-0.00113228	5.1253e-07
2	1	0	0	0	32.6695	-0.389445	-0.390207	-0.000146768	2	-0.00113238	5.72699e-08
2	1	0	0	0	32.8095	-0.37545	-0.376218	0.000953705	2	-0.00113232	3.58801e-07
2	1	0	0	0	32.9495	-0.361455	-0.362222	0.0020505	2	-0.00113211	7.42736e-07
2	1	0	0	0	33.0895	-0.34746	-0.348224	0.00314279	2	-0.00113174	1.09439e-06
2	1	0	1	0	33.2293	-0.333465	-0.334225	0.00424322	2	-0.00113122	1.41819e-06
2	1	0	1	0	33.3693	-0.31947	-0.32024	0.00531414	2	-0.00113055	1.7018e-06
2	1	0	1	0	33.5093	-0.305475	-0.306233	0.00647053	2	-0.00112973	1.98149e-06
2	1	0	1	0	33.6493	-0.29148	-0.292223	0.00764571	2	-0.00112874	2.23425e-06
2	1	0	0	0	33.7891	-0.277485	-0.278237	0.00895352	2	-0.00112758	2.4912e-06
2	1	0	1	0	33.9601	-0.260391	-0.261188	0.010443	2	-0.00112591	2.72758e-06
2	1	0	1	0	34.1001	-0.246396	-0.247168	0.012033	2	-0.00112429	2.97419e-06
2	1	0	1	0	34.2401	-0.232401	-0.233168	0.013738	2	-0.00112245	3.20326e-06
2	1	0	0	0	34.3799	-0.218406	-0.219196	0.0154849	2	-0.00112038	3.39422e-06
2	1	0	0	0	34.5199	-0.204411	-0.205175	0.0172805	2	-0.00111804	3.54554e-06
2	1	0	0	0	34.6599	-0.190416	-0.191195	0.0191427	2	-0.00111545	3.65999e-06
2	1	0	0	0	34.7999	-0.176421	-0.177201	0.0209486	2	-0.0011126	3.71211e-06
2	1	0	1	0	34.9397	-0.162426	-0.163207	0.0226893	2	-0.00110951	3.70305e-06
2	1	0	1	0	35.0797	-0.148431	-0.14919	0.0240378	2	-0.0011062	3.5862e-06
2	1	0	1	0	35.2197	-0.134436	-0.135205	0.0248136	2	-0.00110273	3.35494e-06
2	1	0	1	0	35.3597	-0.120441	-0.12123	0.0248491	2	-0.00109921	3.01247e-06
2	1	0	0	0	35.4995	-0.106446	-0.107228	0.0241251	2	-0.00109574	2.58688e-06
2	1	0	0	0	35.6395	-0.0924513	-0.0932289	0.0227578	2	-0.00109241	2.12168e-06
2	1	0	0	0	35.7795	-0.0784564	-0.0792408	0.0212083	2	-0.00108929	1.68056e-06
2	1	0	0	0	35.9195	-0.0644614	-0.0652407	0.0195545	2	-0.0010864	1.27575e-06
2	1	0	1	0	35.9963	-0.0567641	-0.0575359	0.0187685	2	-0.00108491	1.07986e-06