File: TAP_Report/Data/Res_growth/mg6_3_2.mpt
EC-Lab ASCII FILE
Nb header lines : 54

Cyclic Voltammetry

Run on channel : 1 (SN 0696)
User :
Electrode connection : standard
Ewe ctrl range : min = -2.50 V, max = 2.50 V
Ewe,I filtering : 50 kHz
Channel : Grounded
Acquisition started on : 01/18/2017 14:33:00
Saved on :
	File : mg6_3.mpr
	Directory : H:\EC-Lab\Data\Resazurin Bulk 18-1-17\
	Host : 144.32.136.43
Device : SP-300 (SN 0182)
Address : USB
EC-Lab for windows v10.44 (software)
Internet server v10.44 (firmware)
Command interpretor v10.44 (firmware)
Electrode material :
Initial state :
Electrolyte :
Comments :
Cable : standard
Reference electrode : SCE Saturated Calomel Electrode (0.241 V)
Electrode surface area : 0.001 cm²
Characteristic mass : 0.001 g
Equivalent Weight : 0.000 g/eq.
Density : 0.000 g/cm3
Ei (V)              0.000
vs.                 Eoc
dE/dt               100.000
dE/dt unit          mV/s
E1 (V)              0.000
vs.                 Ref
Step percent        50
N                   10
E range min (V)     -2.500
E range max (V)     2.500
I Range             Auto
I Range min         Unset
I Range max         Unset
I Range init        Unset
Bandwidth           8
E2 (V)              -0.900
vs.                 Ref
nc cycles           2
Reverse Scan        1
Ef (V)              0.000
vs.                 Eoc

mode	ox/red	error	control changes	counter inc.	time/s	control/V	Ewe/V	<I>/mA	cycle number	(Q-Qo)/C	Capacitance charge/µF	Capacitance discharge/µF	P/W
2	1	0	1	1	17.9986	-0.0758073	-0.0762319	0.024097	2	-0.000545905	0.000000000000000E+000	0.000000000000000E+000	1.83696e-06
2	1	0	0	1	18.1641	-0.0592632	-0.0596493	0.0224284	2	-0.000541989	235.312	0.000000000000000E+000	1.33784e-06
2	1	0	0	1	18.3341	-0.0422693	-0.0426304	0.0204351	2	-0.000538308	224.178	0.000000000000000E+000	8.71156e-07
2	1	0	0	1	18.5041	-0.0252754	-0.0256525	0.018735	2	-0.000534944	214.451	0.000000000000000E+000	4.80598e-07
2	1	0	1	1	18.6739	-0.00828143	-0.00865204	0.0175453	2	-0.000531829	205.905	0.000000000000000E+000	1.51803e-07
2	0	0	0	1	18.8325	-0.00758168	-0.00800364	0.011289	2	-0.000529424	238.891	0.000000000000000E+000	9.03529e-08
2	0	0	1	1	19.0023	-0.0245756	-0.0250038	0.00764635	2	-0.000527892	348.512	0.000000000000000E+000	1.91188e-07
2	0	0	1	1	19.1723	-0.0415695	-0.0419968	0.00539516	2	-0.000526835	553.283	0.000000000000000E+000	2.2658e-07
2	0	0	0	1	19.3733	-0.0616624	-0.0620943	0.00326343	2	-0.000525982	1399.19	0.000000000000000E+000	2.02641e-07
2	0	0	1	1	19.5431	-0.0786563	-0.0790994	0.00195525	2	-0.000525543	7049.63	0.000000000000000E+000	1.54659e-07
2	0	0	1	1	19.7131	-0.0956502	-0.0960945	0.000818736	2	-0.00052531	1029.26	0.000000000000000E+000	7.8676e-08
2	0	0	1	1	19.8831	-0.112644	-0.113108	-0.000259334	2	-0.000525265	643.049	1.73834	2.93328e-08
2	0	0	1	1	20.0531	-0.129638	-0.130074	-0.0013593	2	-0.000525404	643.049	7.12245	1.76811e-07
2	0	0	0	1	20.2229	-0.146632	-0.147075	-0.0024799	2	-0.00052573	643.049	12.6344	3.64732e-07
2	0	0	0	1	20.3929	-0.163626	-0.164075	-0.00370765	2	-0.000526257	643.049	18.3944	6.08334e-07
2	0	0	0	1	20.5629	-0.18062	-0.181096	-0.0050514	2	-0.000527003	643.049	24.4705	9.14788e-07
2	0	0	1	1	20.7327	-0.197614	-0.198099	-0.00644241	2	-0.000527981	643.049	30.8475	1.27623e-06
2	0	0	1	1	20.9027	-0.214608	-0.21511	-0.0078326	2	-0.000529199	643.049	37.4376	1.68487e-06
2	0	0	1	1	21.0727	-0.231602	-0.232097	-0.00914181	2	-0.000530647	643.049	44.0772	2.12179e-06
2	0	0	1	1	21.2735	-0.251694	-0.252164	-0.0102714	2	-0.000532624	643.049	51.7157	2.59007e-06
2	0	0	1	1	21.4435	-0.268688	-0.26916	-0.0112799	2	-0.000534497	643.049	57.7058	3.0361e-06
2	0	0	1	1	21.6135	-0.285682	-0.286145	-0.0122274	2	-0.000536537	643.049	63.4838	3.49882e-06
2	0	0	0	1	21.7833	-0.302676	-0.303147	-0.0131604	2	-0.000538735	643.049	69.0516	3.98954e-06
2	0	0	0	1	21.9533	-0.31967	-0.32015	-0.0141072	2	-0.000541097	643.049	74.4977	4.51641e-06
2	0	0	0	1	22.1233	-0.336664	-0.337119	-0.0151286	2	-0.000543623	643.049	79.8683	5.10014e-06
2	0	0	0	1	22.2933	-0.353658	-0.354108	-0.0161122	2	-0.000546319	643.049	85.1906	5.70545e-06
2	0	0	1	1	22.4631	-0.370652	-0.371104	-0.0171308	2	-0.000549185	643.049	90.4619	6.3573e-06
2	0	0	1	1	22.6331	-0.387646	-0.388084	-0.0180792	2	-0.000552219	643.049	95.6982	7.01624e-06
2	0	0	1	1	22.8031	-0.40464	-0.405082	-0.0189707	2	-0.000555411	643.049	100.863	7.68467e-06
2	0	0	0	1	22.9729	-0.421634	-0.422103	-0.0198135	2	-0.000558749	643.049	105.925	8.36332e-06
2	0	0	0	1	23.1429	-0.438628	-0.439095	-0.0206653	2	-0.000562231	643.049	110.909	9.07405e-06
2	0	0	0	1	23.3129	-0.455622	-0.456078	-0.0214471	2	-0.00056585	643.049	115.807	9.78154e-06
2	0	0	1	1	23.4827	-0.472616	-0.473083	-0.0222369	2	-0.000569599	643.049	120.593	1.05199e-05
2	0	0	1	1	23.6527	-0.489609	-0.490074	-0.0229712	2	-0.000573484	643.049	125.313	1.12576e-05
2	0	0	1	1	23.8227	-0.506603	-0.507073	-0.0238059	2	-0.0005775	643.049	129.958	1.20713e-05
2	0	0	1	1	23.9926	-0.52359	-0.524059	-0.0246109	2	-0.000581646	643.049	134.542	1.28975e-05
2	0	0	0	1	24.1625	-0.540591	-0.541088	-0.0253361	2	-0.000585927	643.049	139.06	1.3709e-05
2	0	0	0	1	24.3325	-0.557585	-0.558061	-0.0262259	2	-0.00059035	643.049	143.571	1.46356e-05
2	0	0	0	1	24.5025	-0.574579	-0.575081	-0.0271802	2	-0.000594927	643.049	148.074	1.56308e-05
2	0	0	1	1	24.6723	-0.591573	-0.592044	-0.0282666	2	-0.000599672	643.049	152.624	1.67351e-05
2	0	0	1	1	24.8423	-0.608567	-0.60904	-0.0295364	2	-0.000604623	643.049	157.271	1.79889e-05
2	0	0	1	1	25.0123	-0.625561	-0.626027	-0.0311186	2	-0.000609815	643.049	162.084	1.94811e-05
2	0	0	0	1	25.1821	-0.642555	-0.643027	-0.0330191	2	-0.000615295	643.049	167.128	2.12322e-05
2	0	0	0	1	25.3521	-0.659549	-0.660023	-0.0353745	2	-0.000621143	643.049	172.537	2.3348e-05
2	0	0	0	1	25.5221	-0.676543	-0.677021	-0.0383123	2	-0.000627439	643.049	178.411	2.59383e-05
2	0	0	1	1	25.6919	-0.693537	-0.694002	-0.0419582	2	-0.000634285	643.049	184.897	2.91191e-05
2	0	0	1	1	25.8619	-0.710531	-0.710989	-0.0465991	2	-0.000641839	643.049	192.201	3.31314e-05
2	0	0	1	1	26.0319	-0.727524	-0.728002	-0.0523898	2	-0.000650279	643.049	200.533	3.81399e-05
2	0	0	1	1	26.2019	-0.744518	-0.745004	-0.059623	2	-0.000659826	643.049	210.176	4.44194e-05
2	0	0	0	1	26.3717	-0.761512	-0.761988	-0.0684096	2	-0.000670718	643.049	221.395	5.21273e-05
2	0	0	0	1	26.5417	-0.778506	-0.778983	-0.0788001	2	-0.000683248	643.049	234.498	6.1384e-05
2	0	0	0	1	26.7117	-0.7955	-0.795958	-0.0908846	2	-0.000697687	643.049	249.752	7.23403e-05
2	0	0	0	1	26.9125	-0.815593	-0.816009	-0.107081	2	-0.000717573	643.049	270.92	8.73794e-05
2	0	0	0	1	27.0825	-0.832587	-0.832999	-0.123737	2	-0.000737281	643.049	291.727	0.000103073
2	0	0	0	1	27.2525	-0.849581	-0.849979	-0.143169	2	-0.000760059	643.049	315.745	0.000121691
2	0	0	1	1	27.4223	-0.866575	-0.866984	-0.16627	2	-0.000786413	643.049	343.416	0.000144154
2	0	0	1	1	27.5923	-0.883569	-0.883973	-0.193622	2	-0.000817067	643.049	375.452	0.000171156
2	1	0	0	0	27.7572	-0.900013	-0.900426	-0.22509	2	-0.000851667	643.049	411.405	0.000202677
2	1	0	1	0	27.9227	-0.883469	-0.883878	-0.17865	2	-0.000884503	643.049	462.465	0.000157905
2	1	0	1	0	28.0927	-0.866475	-0.866895	-0.145096	2	-0.000911765	643.049	508.762	0.000125783
2	1	0	0	0	28.2625	-0.849481	-0.849903	-0.118035	2	-0.000933886	643.049	550.289	0.000100319
2	1	0	0	0	28.4325	-0.832487	-0.832904	-0.0959315	2	-0.000951888	643.049	588.116	7.99017e-05
2	1	0	0	0	28.6025	-0.815493	-0.815919	-0.0780067	2	-0.000966494	643.049	622.972	6.36471e-05
2	1	0	1	0	28.7723	-0.798499	-0.798903	-0.0630378	2	-0.000978291	643.049	655.517	5.03611e-05
2	1	0	1	0	28.9423	-0.781505	-0.781943	-0.0507084	2	-0.000987799	643.049	686.268	3.96511e-05
2	1	0	0	0	29.1433	-0.761412	-0.761794	-0.0386505	2	-0.000996647	643.049	720.995	2.94438e-05
2	1	0	1	0	29.3131	-0.744418	-0.74483	-0.0306342	2	-0.00100246	643.049	749.384	2.28173e-05
2	1	0	1	0	29.4831	-0.727424	-0.7278	-0.0240874	2	-0.00100705	643.049	777.444	1.75308e-05
2	1	0	1	0	29.6531	-0.710431	-0.710823	-0.0188546	2	-0.00101064	643.049	805.369	1.34023e-05
2	1	0	1	0	29.8231	-0.693437	-0.693837	-0.0146186	2	-0.00101343	643.049	833.562	1.01429e-05
2	1	0	0	0	29.9929	-0.676443	-0.676821	-0.0112538	2	-0.00101557	643.049	862.362	7.61681e-06
2	1	0	0	0	30.1629	-0.659449	-0.659849	-0.0086459	2	-0.00101722	643.049	891.97	5.70499e-06
2	1	0	0	0	30.3329	-0.642455	-0.642848	-0.00660922	2	-0.00101846	643.049	922.777	4.24872e-06
2	1	0	1	0	30.5027	-0.625461	-0.625844	-0.00500604	2	-0.0010194	643.049	955.025	3.133e-06
2	1	0	0	0	30.7037	-0.605368	-0.605748	-0.00333542	2	-0.00102022	643.049	995.294	2.02043e-06
2	1	0	0	0	30.8737	-0.588374	-0.588754	-0.00233353	2	-0.00102069	643.049	1031.54	1.37387e-06
2	1	0	1	0	31.0435	-0.57138	-0.571762	-0.00146992	2	-0.00102101	643.049	1070.12	8.40442e-07
2	1	0	1	0	31.2135	-0.554386	-0.554766	-0.000728588	2	-0.0010212	643.049	1111.34	4.04196e-07
2	1	0	1	0	31.3835	-0.537392	-0.537769	-3.26609e-05	2	-0.00102126	643.049	1155.54	1.7564e-08
2	1	0	0	0	31.5533	-0.520398	-0.520766	0.00066654	2	-0.0010212	46.2277	1155.54	3.47112e-07
2	1	0	0	0	31.7233	-0.503405	-0.503766	0.00133561	2	-0.00102103	48.4677	1155.54	6.72834e-07
2	1	0	0	0	31.8933	-0.486411	-0.486763	0.00196637	2	-0.00102075	51.168	1155.54	9.57155e-07
2	1	0	0	0	32.0633	-0.469417	-0.469784	0.0026647	2	-0.00102035	54.3869	1155.54	1.25184e-06
2	1	0	1	0	32.2331	-0.452423	-0.452791	0.00334544	2	-0.00101984	58.2082	1155.54	1.51478e-06
2	1	0	1	0	32.4031	-0.435429	-0.435795	0.00406814	2	-0.00101921	62.7256	1155.54	1.77287e-06
2	1	0	1	0	32.5731	-0.418435	-0.418804	0.00479512	2	-0.00101845	68.0462	1155.54	2.00822e-06
2	1	0	0	0	32.7429	-0.401441	-0.401804	0.00555354	2	-0.00101757	74.3131	1155.54	2.23143e-06
2	1	0	0	0	32.9129	-0.384447	-0.384811	0.00631276	2	-0.00101656	81.6872	1155.54	2.42922e-06
2	1	0	0	0	33.0829	-0.367453	-0.367788	0.00708517	2	-0.00101542	90.3757	1155.54	2.60584e-06
2	1	0	1	0	33.2527	-0.350459	-0.350801	0.00784769	2	-0.00101415	100.602	1155.54	2.75297e-06
2	1	0	1	0	33.4227	-0.333465	-0.333799	0.00864032	2	-0.00101275	112.698	1155.54	2.88413e-06
2	1	0	1	0	33.5927	-0.316471	-0.316821	0.00942952	2	-0.00101121	127.049	1155.54	2.98747e-06
2	1	0	1	0	33.7935	-0.296378	-0.296757	0.0102405	2	-0.00100921	147.663	1155.54	3.03894e-06
2	1	0	1	0	33.9635	-0.279385	-0.279761	0.0113173	2	-0.00100734	169.003	1155.54	3.16613e-06
2	1	0	1	0	34.1335	-0.262391	-0.262771	0.0124722	2	-0.00100529	195.235	1155.54	3.27735e-06
2	1	0	1	0	34.3035	-0.245397	-0.245767	0.0139244	2	-0.00100301	228.069	1155.54	3.42216e-06
2	1	0	0	0	34.4733	-0.228403	-0.228795	0.015478	2	-0.00100047	269.848	1155.54	3.54129e-06
2	1	0	0	0	34.6433	-0.211409	-0.211786	0.0172239	2	-0.000997649	324.278	1155.54	3.64778e-06
2	1	0	0	0	34.8133	-0.194415	-0.194806	0.0190273	2	-0.000994528	396.768	1155.54	3.70665e-06
2	1	0	1	0	34.9831	-0.177421	-0.177795	0.020836	2	-0.000991103	496.641	1155.54	3.70454e-06
2	1	0	1	0	35.1531	-0.160427	-0.160779	0.0226583	2	-0.000987361	640.469	1155.54	3.64298e-06
2	1	0	1	0	35.3231	-0.143433	-0.143802	0.0245505	2	-0.0009833	861.012	1155.54	3.53041e-06
2	1	0	0	0	35.4929	-0.126439	-0.126785	0.0262449	2	-0.000978937	1236.47	1155.54	3.32746e-06
2	1	0	0	0	35.6629	-0.109445	-0.109804	0.0272691	2	-0.000974336	1997.84	1155.54	2.99425e-06
2	1	0	0	0	35.8329	-0.0924513	-0.0928027	0.0271332	2	-0.000969655	4327.48	1155.54	2.51803e-06
2	1	0	1	0	35.9982	-0.0759072	-0.0762395	0.0259355	2	-0.000965214	9.97527e+06	1155.54	1.97731e-06