File: TAP_Report/Data/Res_growth/mg6_1_2.mpt
EC-Lab ASCII FILE
Nb header lines : 54

Cyclic Voltammetry

Run on channel : 1 (SN 0696)
User :
Electrode connection : standard
Ewe ctrl range : min = -2.50 V, max = 2.50 V
Ewe,I filtering : 50 kHz
Channel : Grounded
Acquisition started on : 01/18/2017 14:27:37
Saved on :
	File : mg6_1.mpr
	Directory : H:\EC-Lab\Data\Resazurin Bulk 18-1-17\
	Host : 144.32.136.43
Device : SP-300 (SN 0182)
Address : USB
EC-Lab for windows v10.44 (software)
Internet server v10.44 (firmware)
Command interpretor v10.44 (firmware)
Electrode material :
Initial state :
Electrolyte :
Comments :
Cable : standard
Reference electrode : SCE Saturated Calomel Electrode (0.241 V)
Electrode surface area : 0.001 cm²
Characteristic mass : 0.001 g
Equivalent Weight : 0.000 g/eq.
Density : 0.000 g/cm3
Ei (V)              0.000
vs.                 Eoc
dE/dt               100.000
dE/dt unit          mV/s
E1 (V)              0.000
vs.                 Ref
Step percent        50
N                   10
E range min (V)     -2.500
E range max (V)     2.500
I Range             Auto
I Range min         Unset
I Range max         Unset
I Range init        Unset
Bandwidth           8
E2 (V)              -0.900
vs.                 Ref
nc cycles           2
Reverse Scan        1
Ef (V)              0.000
vs.                 Eoc

mode	ox/red	error	control changes	counter inc.	time/s	control/V	Ewe/V	<I>/mA	cycle number	(Q-Qo)/C	P/W
2	1	0	0	1	17.9966	-0.0382207	-0.0390127	0.0189305	2	-0.000858951	7.38532e-07
2	1	0	1	1	18.1321	-0.0246756	-0.0254364	0.0175958	2	-0.000856451	4.47574e-07
2	1	0	1	1	18.2721	-0.0106806	-0.0114631	0.0165216	2	-0.000854033	1.8939e-07
2	0	0	1	1	18.3945	-0.00158383	-0.00244139	0.0127627	2	-0.000852068	3.11589e-08
2	0	0	1	1	18.5345	-0.0155788	-0.0164412	0.00814787	2	-0.000850694	1.3396e-07
2	0	0	1	1	18.6745	-0.0295738	-0.030424	0.00575704	2	-0.00084976	1.75152e-07
2	0	0	1	1	18.8453	-0.0466677	-0.0475158	0.00351738	2	-0.000849001	1.67131e-07
2	0	0	1	1	18.9853	-0.0606627	-0.0615235	0.0022529	2	-0.000848601	1.38606e-07
2	0	0	1	1	19.1253	-0.0746577	-0.0755292	0.00113288	2	-0.000848367	8.55653e-08
2	0	0	1	1	19.2653	-0.0886527	-0.0895239	0.000148237	2	-0.000848279	1.32708e-08
2	0	0	0	1	19.4051	-0.102648	-0.103524	-0.000788114	2	-0.000848325	8.15889e-08
2	0	0	0	1	19.5451	-0.116643	-0.11753	-0.00172101	2	-0.000848501	2.0227e-07
2	0	0	0	1	19.6851	-0.130638	-0.131507	-0.00266411	2	-0.000848807	3.50348e-07
2	0	0	0	1	19.8251	-0.144633	-0.145511	-0.00365429	2	-0.00084925	5.31738e-07
2	0	0	1	1	19.9649	-0.158628	-0.159503	-0.00476338	2	-0.00084984	7.59773e-07
2	0	0	1	1	20.1049	-0.172623	-0.173519	-0.006015	2	-0.000850595	1.04372e-06
2	0	0	1	1	20.2449	-0.186618	-0.187497	-0.0073893	2	-0.000851534	1.38547e-06
2	0	0	1	1	20.3849	-0.200613	-0.201514	-0.0089213	2	-0.000852677	1.79777e-06
2	0	0	1	1	20.5557	-0.217707	-0.218601	-0.0105726	2	-0.00085436	2.31117e-06
2	0	0	1	1	20.6957	-0.231702	-0.232568	-0.0120897	2	-0.000855984	2.81168e-06
2	0	0	1	1	20.8357	-0.245697	-0.246591	-0.0135911	2	-0.000857819	3.35145e-06
2	0	0	1	1	20.9757	-0.259692	-0.260591	-0.0150423	2	-0.000859854	3.91987e-06
2	0	0	0	1	21.1155	-0.273687	-0.274589	-0.0163066	2	-0.000862076	4.47762e-06
2	0	0	0	1	21.2555	-0.287682	-0.288555	-0.0175818	2	-0.000864484	5.07332e-06
2	0	0	0	1	21.3955	-0.301677	-0.302555	-0.0188985	2	-0.000867071	5.71783e-06
2	0	0	0	1	21.5355	-0.315672	-0.316538	-0.0201902	2	-0.000869842	6.39098e-06
2	0	0	1	1	21.6753	-0.329667	-0.330559	-0.021588	2	-0.000872798	7.13612e-06
2	0	0	1	1	21.8153	-0.343662	-0.344539	-0.0230233	2	-0.000875954	7.93243e-06
2	0	0	1	1	21.9553	-0.357657	-0.358563	-0.0245288	2	-0.000879316	8.79512e-06
2	0	0	1	1	22.0953	-0.371652	-0.372538	-0.0260653	2	-0.000882893	9.71032e-06
2	0	0	0	1	22.2351	-0.385647	-0.38654	-0.0276637	2	-0.000886685	1.06931e-05
2	0	0	0	1	22.3751	-0.399642	-0.400538	-0.0293232	2	-0.000890706	1.17451e-05
2	0	0	0	1	22.5151	-0.413637	-0.414528	-0.0308927	2	-0.00089495	1.28059e-05
2	0	0	0	1	22.6551	-0.427632	-0.428529	-0.0324257	2	-0.000899416	1.38954e-05
2	0	0	1	1	22.7949	-0.441627	-0.442521	-0.0340429	2	-0.000904095	1.50647e-05
2	0	0	1	1	22.9349	-0.455622	-0.456499	-0.0355916	2	-0.000908998	1.62476e-05
2	0	0	1	1	23.0749	-0.469617	-0.470513	-0.0370817	2	-0.000914116	1.74474e-05
2	0	0	1	1	23.2149	-0.483612	-0.484494	-0.0386319	2	-0.000919448	1.87169e-05
2	0	0	0	1	23.3547	-0.497607	-0.498501	-0.0401224	2	-0.000924985	2.00011e-05
2	0	0	0	1	23.4947	-0.511602	-0.512495	-0.0416407	2	-0.000930745	2.13406e-05
2	0	0	0	1	23.6347	-0.525597	-0.526497	-0.0432562	2	-0.000936722	2.27743e-05
2	0	0	0	1	23.7747	-0.539592	-0.54049	-0.0448826	2	-0.000942922	2.42586e-05
2	0	0	1	1	23.9145	-0.553587	-0.554481	-0.0465641	2	-0.000949348	2.58189e-05
2	0	0	1	1	24.0545	-0.567582	-0.568468	-0.0483852	2	-0.000956025	2.75054e-05
2	0	0	1	1	24.1945	-0.581577	-0.582464	-0.0502518	2	-0.000962961	2.92699e-05
2	0	0	1	1	24.3345	-0.595572	-0.596458	-0.0523052	2	-0.000970172	3.11978e-05
2	0	0	0	1	24.4743	-0.609567	-0.610469	-0.0545469	2	-0.000977674	3.32992e-05
2	0	0	0	1	24.6143	-0.623562	-0.624465	-0.0569998	2	-0.000985518	3.55944e-05
2	0	0	0	1	24.7543	-0.637557	-0.638464	-0.0598217	2	-0.00099373	3.8194e-05
2	0	0	0	1	24.8943	-0.651552	-0.652459	-0.0629823	2	-0.00100235	4.10934e-05
2	0	0	1	1	25.0341	-0.665547	-0.666441	-0.0664094	2	-0.00101143	4.4258e-05
2	0	0	1	1	25.1741	-0.679542	-0.68042	-0.0702465	2	-0.00102102	4.77971e-05
2	0	0	1	1	25.3141	-0.693537	-0.694422	-0.0744105	2	-0.00103118	5.16723e-05
2	0	0	1	1	25.4541	-0.707532	-0.708434	-0.0790507	2	-0.00104195	5.60021e-05
2	0	0	0	1	25.5939	-0.721527	-0.722432	-0.0842474	2	-0.0010534	6.0863e-05
2	0	0	0	1	25.7339	-0.735522	-0.736431	-0.0900088	2	-0.00106563	6.62853e-05
2	0	0	0	1	25.8739	-0.749517	-0.750407	-0.0964455	2	-0.00107871	7.23734e-05
2	0	0	0	1	26.0447	-0.76661	-0.767457	-0.104698	2	-0.00109593	8.03511e-05
2	0	0	0	1	26.1847	-0.780605	-0.781472	-0.112812	2	-0.00111126	8.81598e-05
2	0	0	0	1	26.3247	-0.7946	-0.795452	-0.122056	2	-0.0011278	9.70896e-05
2	0	0	0	1	26.4647	-0.808595	-0.809444	-0.132222	2	-0.0011457	0.000107027
2	0	0	0	1	26.6046	-0.8226	-0.823474	-0.143784	2	-0.0011651	0.000118402
2	0	0	1	1	26.7445	-0.836585	-0.83744	-0.156557	2	-0.0011862	0.000131107
2	0	0	1	1	26.8845	-0.85058	-0.851423	-0.171221	2	-0.00120925	0.000145781
2	0	0	1	1	27.0245	-0.864575	-0.865426	-0.188185	2	-0.00123451	0.000162861
2	0	0	0	1	27.1643	-0.87857	-0.879436	-0.207898	2	-0.00126229	0.000182833
2	0	0	0	1	27.3043	-0.892565	-0.893403	-0.230739	2	-0.00129307	0.000206143
2	1	0	1	0	27.4349	-0.894465	-0.895311	-0.226184	2	-0.00132393	0.000202505
2	1	0	1	0	27.5749	-0.88047	-0.881313	-0.194594	2	-0.00135317	0.000171499
2	1	0	0	0	27.7147	-0.866475	-0.86733	-0.169327	2	-0.00137843	0.000146863
2	1	0	0	0	27.8547	-0.85248	-0.853329	-0.148235	2	-0.0014005	0.000126493
2	1	0	0	0	27.9947	-0.838485	-0.839326	-0.130243	2	-0.00141985	0.000109316
2	1	0	0	0	28.1347	-0.82449	-0.825325	-0.114991	2	-0.00143688	9.49045e-05
2	1	0	1	0	28.2745	-0.810495	-0.811337	-0.101979	2	-0.0014519	8.27391e-05
2	1	0	1	0	28.4145	-0.7965	-0.797324	-0.0907056	2	-0.00146526	7.23218e-05
2	1	0	1	0	28.5545	-0.782505	-0.783361	-0.0811161	2	-0.00147715	6.35432e-05
2	1	0	1	0	28.6945	-0.76851	-0.769369	-0.0725431	2	-0.00148777	5.58124e-05
2	1	0	0	0	28.8343	-0.754515	-0.755361	-0.0653037	2	-0.00149728	4.93279e-05
2	1	0	0	0	28.9743	-0.74052	-0.741376	-0.0590007	2	-0.00150585	4.37417e-05
2	1	0	0	0	29.1143	-0.726525	-0.727361	-0.0533216	2	-0.00151359	3.87841e-05
2	1	0	0	0	29.2543	-0.71253	-0.713371	-0.0484508	2	-0.00152059	3.45634e-05
2	1	0	0	0	29.4251	-0.695436	-0.696249	-0.042831	2	-0.00152827	2.9821e-05
2	1	0	0	0	29.5651	-0.681441	-0.682244	-0.0390323	2	-0.00153396	2.66295e-05
2	1	0	0	0	29.7051	-0.667446	-0.668268	-0.0356694	2	-0.00153915	2.38367e-05
2	1	0	1	0	29.8449	-0.653451	-0.654263	-0.0325837	2	-0.00154389	2.13183e-05
2	1	0	1	0	29.9849	-0.639456	-0.640261	-0.0298765	2	-0.00154822	1.91288e-05
2	1	0	1	0	30.1249	-0.625461	-0.626262	-0.0273918	2	-0.0015522	1.71544e-05
2	1	0	1	0	30.2649	-0.611466	-0.612256	-0.0251665	2	-0.00155584	1.54083e-05
2	1	0	0	0	30.4047	-0.597471	-0.598258	-0.0231159	2	-0.00155918	1.38293e-05
2	1	0	0	0	30.5447	-0.583476	-0.584265	-0.0212949	2	-0.00156226	1.24418e-05
2	1	0	0	0	30.6847	-0.569481	-0.570272	-0.0195628	2	-0.00156509	1.11561e-05
2	1	0	0	0	30.8247	-0.555486	-0.556268	-0.0180303	2	-0.00156768	1.00297e-05
2	1	0	1	0	30.9645	-0.541491	-0.542305	-0.0164635	2	-0.00157006	8.92825e-06
2	1	0	1	0	31.1045	-0.527496	-0.528295	-0.015094	2	-0.00157224	7.97405e-06
2	1	0	1	0	31.2445	-0.513501	-0.5143	-0.0136538	2	-0.00157422	7.02218e-06
2	1	0	1	0	31.3845	-0.499506	-0.500296	-0.0123149	2	-0.001576	6.16109e-06
2	1	0	0	0	31.5243	-0.485511	-0.486287	-0.0109468	2	-0.0015776	5.32328e-06
2	1	0	0	0	31.6643	-0.471516	-0.4723	-0.00966317	2	-0.00157901	4.56391e-06
2	1	0	0	0	31.8043	-0.457521	-0.4583	-0.00832144	2	-0.00158023	3.81372e-06
2	1	0	0	0	31.9443	-0.443526	-0.44431	-0.00700123	2	-0.00158127	3.11072e-06
2	1	0	1	0	32.0841	-0.429531	-0.430336	-0.00568506	2	-0.00158213	2.44648e-06
2	1	0	0	0	32.2551	-0.412437	-0.41323	-0.0039181	2	-0.00158293	1.61908e-06
2	1	0	0	0	32.3951	-0.398442	-0.39922	-0.00262088	2	-0.00158339	1.04631e-06
2	1	0	0	0	32.5351	-0.384447	-0.385231	-0.00135781	2	-0.00158367	5.23069e-07
2	1	0	1	0	32.6749	-0.370452	-0.371233	-0.000102712	2	-0.00158377	3.81302e-08
2	1	0	1	0	32.8149	-0.356457	-0.357241	0.00111426	2	-0.0015837	3.9806e-07
2	1	0	1	0	32.9549	-0.342462	-0.343232	0.0023089	2	-0.00158346	7.92488e-07
2	1	0	1	0	33.0949	-0.328467	-0.329244	0.00346924	2	-0.00158305	1.14223e-06
2	1	0	0	0	33.2347	-0.314472	-0.315233	0.00463502	2	-0.00158248	1.46111e-06
2	1	0	0	0	33.3747	-0.300477	-0.30123	0.00582177	2	-0.00158175	1.7537e-06
2	1	0	0	0	33.5147	-0.286482	-0.287241	0.00709955	2	-0.00158085	2.03928e-06
2	1	0	0	0	33.6547	-0.272487	-0.273243	0.00848977	2	-0.00157975	2.31977e-06
2	1	0	1	0	33.7945	-0.258492	-0.259253	0.0100174	2	-0.00157846	2.59703e-06
2	1	0	0	0	33.9655	-0.241398	-0.24218	0.0118989	2	-0.00157657	2.88168e-06
2	1	0	0	0	34.1055	-0.227403	-0.22819	0.0137026	2	-0.00157475	3.1268e-06
2	1	0	0	0	34.2455	-0.213408	-0.214199	0.015613	2	-0.00157267	3.34428e-06
2	1	0	1	0	34.3853	-0.199413	-0.200196	0.0175299	2	-0.00157032	3.50942e-06
2	1	0	1	0	34.5253	-0.185418	-0.186191	0.0195397	2	-0.00156769	3.63811e-06
2	1	0	1	0	34.6653	-0.171423	-0.172216	0.0215	2	-0.00156479	3.70265e-06
2	1	0	1	0	34.8053	-0.157428	-0.158195	0.0234967	2	-0.0015616	3.71705e-06
2	1	0	0	0	34.9451	-0.143433	-0.144209	0.0253494	2	-0.00155815	3.6556e-06
2	1	0	0	0	35.0851	-0.129438	-0.130225	0.0268355	2	-0.00155446	3.49464e-06
2	1	0	0	0	35.2251	-0.115443	-0.116244	0.0276624	2	-0.00155061	3.2156e-06
2	1	0	0	0	35.3651	-0.101448	-0.102219	0.0277135	2	-0.00154668	2.83286e-06
2	1	0	1	0	35.5049	-0.0874531	-0.0882224	0.0268578	2	-0.00154283	2.36946e-06
2	1	0	1	0	35.6449	-0.0734581	-0.0742373	0.0253137	2	-0.00153914	1.87922e-06
2	1	0	1	0	35.7849	-0.0594631	-0.0602449	0.0234854	2	-0.00153569	1.41487e-06
2	1	0	1	0	35.9249	-0.0454681	-0.0462391	0.0217151	2	-0.0015325	1.00409e-06
2	1	0	1	0	35.9933	-0.0386189	-0.0393976	0.0208894	2	-0.00153103	8.22993e-07