File: TAP_Report/Data/Res_growth/mg6_2_2.mpt
EC-Lab ASCII FILE
Nb header lines : 54

Cyclic Voltammetry

Run on channel : 1 (SN 0696)
User :
Electrode connection : standard
Ewe ctrl range : min = -2.50 V, max = 2.50 V
Ewe,I filtering : 50 kHz
Channel : Grounded
Acquisition started on : 01/18/2017 14:30:28
Saved on :
	File : mg6_2.mpr
	Directory : H:\EC-Lab\Data\Resazurin Bulk 18-1-17\
	Host : 144.32.136.43
Device : SP-300 (SN 0182)
Address : USB
EC-Lab for windows v10.44 (software)
Internet server v10.44 (firmware)
Command interpretor v10.44 (firmware)
Electrode material :
Initial state :
Electrolyte :
Comments :
Cable : standard
Reference electrode : SCE Saturated Calomel Electrode (0.241 V)
Electrode surface area : 0.001 cm²
Characteristic mass : 0.001 g
Equivalent Weight : 0.000 g/eq.
Density : 0.000 g/cm3
Ei (V)              0.000
vs.                 Eoc
dE/dt               100.000
dE/dt unit          mV/s
E1 (V)              0.000
vs.                 Ref
Step percent        50
N                   10
E range min (V)     -2.500
E range max (V)     2.500
I Range             Auto
I Range min         Unset
I Range max         Unset
I Range init        Unset
Bandwidth           8
E2 (V)              -0.900
vs.                 Ref
nc cycles           2
Reverse Scan        1
Ef (V)              0.000
vs.                 Eoc

mode	ox/red	error	control changes	counter inc.	time/s	control/V	Ewe/V	<I>/mA	cycle number	(Q-Qo)/C	P/W
2	1	0	0	1	17.9966	-0.0481172	-0.0488946	0.0217489	2	-0.000575755	1.0634e-06
2	1	0	1	1	18.1321	-0.034572	-0.0353283	0.0201122	2	-0.000572886	7.10529e-07
2	1	0	1	1	18.2721	-0.020577	-0.0213304	0.0186968	2	-0.000570137	3.98811e-07
2	1	0	1	1	18.4121	-0.00658204	-0.007352	0.0176177	2	-0.000567562	1.29525e-07
2	0	0	0	1	18.5435	-0.00658204	-0.00739992	0.0119023	2	-0.000565543	8.8076e-08
2	0	0	0	1	18.6835	-0.020577	-0.0213906	0.00846476	2	-0.000564185	1.81066e-07
2	0	0	0	1	18.8235	-0.034572	-0.0353883	0.00635426	2	-0.000563197	2.24866e-07
2	0	0	0	1	18.9634	-0.0485693	-0.0493802	0.00472383	2	-0.000562468	2.33264e-07
2	0	0	1	1	19.1333	-0.065561	-0.0663826	0.00289062	2	-0.000561831	1.91887e-07
2	0	0	1	1	19.2733	-0.079556	-0.0803771	0.00180707	2	-0.000561505	1.45247e-07
2	0	0	1	1	19.4133	-0.093551	-0.094378	0.000813707	2	-0.000561324	7.6796e-08
2	0	0	0	1	19.5531	-0.107546	-0.108359	-0.000138544	2	-0.00056128	1.50124e-08
2	0	0	0	1	19.6931	-0.121541	-0.122386	-0.00106699	2	-0.000561366	1.30585e-07
2	0	0	0	1	19.8331	-0.135536	-0.136354	-0.00203739	2	-0.000561585	2.77808e-07
2	0	0	0	1	19.9731	-0.149531	-0.15035	-0.00305155	2	-0.000561942	4.588e-07
2	0	0	1	1	20.1129	-0.163526	-0.164375	-0.00415441	2	-0.000562447	6.82879e-07
2	0	0	1	1	20.2529	-0.177521	-0.178383	-0.00535677	2	-0.000563113	9.55555e-07
2	0	0	1	1	20.3929	-0.191516	-0.192386	-0.00662981	2	-0.000563951	1.27548e-06
2	0	0	1	1	20.5329	-0.205511	-0.20637	-0.0079178	2	-0.00056497	1.63399e-06
2	0	0	0	1	20.6727	-0.219506	-0.220406	-0.00922133	2	-0.00056617	2.03244e-06
2	0	0	1	1	20.8437	-0.2366	-0.237457	-0.0103802	2	-0.000567872	2.46485e-06
2	0	0	1	1	20.9837	-0.250595	-0.251452	-0.0114935	2	-0.000569444	2.89007e-06
2	0	0	1	1	21.1237	-0.26459	-0.265448	-0.0124871	2	-0.000571163	3.31468e-06
2	0	0	0	1	21.2635	-0.278585	-0.279441	-0.0134962	2	-0.000573019	3.77138e-06
2	0	0	0	1	21.4035	-0.29258	-0.293414	-0.0144066	2	-0.00057501	4.22711e-06
2	0	0	0	1	21.5435	-0.306575	-0.307445	-0.0153867	2	-0.000577131	4.73055e-06
2	0	0	0	1	21.6835	-0.32057	-0.32142	-0.0162671	2	-0.000579383	5.22858e-06
2	0	0	1	1	21.8233	-0.334565	-0.335415	-0.0172442	2	-0.000581765	5.78397e-06
2	0	0	1	1	21.9633	-0.34856	-0.349406	-0.0181599	2	-0.000584283	6.34518e-06
2	0	0	1	1	22.1033	-0.362555	-0.363411	-0.0191452	2	-0.000586935	6.95758e-06
2	0	0	1	1	22.2433	-0.37655	-0.3774	-0.0200285	2	-0.000589716	7.55876e-06
2	0	0	0	1	22.3831	-0.390545	-0.391395	-0.0208927	2	-0.000592614	8.1773e-06
2	0	0	0	1	22.5231	-0.40454	-0.405401	-0.0217351	2	-0.000595632	8.81141e-06
2	0	0	0	1	22.6631	-0.418535	-0.419398	-0.0224023	2	-0.000598756	9.39549e-06
2	0	0	0	1	22.8031	-0.43253	-0.433383	-0.0231164	2	-0.00060198	1.00183e-05
2	0	0	1	1	22.9429	-0.446525	-0.447396	-0.0237596	2	-0.000605294	1.063e-05
2	0	0	1	1	23.0829	-0.46052	-0.46136	-0.0243674	2	-0.000608703	1.12422e-05
2	0	0	1	1	23.2229	-0.474515	-0.475376	-0.0250272	2	-0.0006122	1.18973e-05
2	0	0	1	1	23.3629	-0.48851	-0.489367	-0.0256863	2	-0.000615786	1.257e-05
2	0	0	0	1	23.5027	-0.502505	-0.503365	-0.0262763	2	-0.000619455	1.32266e-05
2	0	0	0	1	23.6427	-0.5165	-0.517362	-0.0269359	2	-0.00062322	1.39356e-05
2	0	0	0	1	23.7827	-0.530495	-0.531357	-0.0276304	2	-0.000627078	1.46816e-05
2	0	0	0	1	23.9227	-0.54449	-0.545346	-0.0283094	2	-0.000631032	1.54384e-05
2	0	0	1	1	24.0625	-0.558485	-0.559354	-0.0291203	2	-0.000635083	1.62886e-05
2	0	0	1	1	24.2025	-0.57248	-0.57333	-0.0299148	2	-0.000639251	1.71511e-05
2	0	0	1	1	24.3425	-0.586475	-0.587343	-0.0308233	2	-0.000643539	1.81039e-05
2	0	0	1	1	24.4825	-0.60047	-0.60135	-0.0318267	2	-0.00064796	1.9139e-05
2	0	0	0	1	24.6223	-0.614465	-0.615314	-0.0329658	2	-0.000652527	2.02843e-05
2	0	0	0	1	24.7623	-0.62846	-0.629334	-0.034369	2	-0.000657275	2.16296e-05
2	0	0	0	1	24.9023	-0.642455	-0.643337	-0.0358552	2	-0.000662224	2.3067e-05
2	0	0	0	1	25.0423	-0.65645	-0.657329	-0.0377242	2	-0.000667409	2.47972e-05
2	0	0	1	1	25.1821	-0.670445	-0.671321	-0.0398976	2	-0.000672866	2.67841e-05
2	0	0	1	1	25.3221	-0.68444	-0.68531	-0.0424469	2	-0.00067866	2.90893e-05
2	0	0	1	1	25.4621	-0.698435	-0.699295	-0.0454824	2	-0.000684847	3.18056e-05
2	0	0	1	1	25.6021	-0.71243	-0.713304	-0.0491889	2	-0.000691504	3.50866e-05
2	0	0	0	1	25.7419	-0.726425	-0.7273	-0.0536188	2	-0.000698719	3.8997e-05
2	0	0	0	1	25.8819	-0.74042	-0.741303	-0.0589034	2	-0.000706624	4.36653e-05
2	0	0	0	1	26.0219	-0.754415	-0.755274	-0.0652209	2	-0.000715339	4.92597e-05
2	0	0	0	1	26.1619	-0.76841	-0.769289	-0.0724732	2	-0.000725	5.57529e-05
2	0	0	1	1	26.3017	-0.782405	-0.783301	-0.0808195	2	-0.00073574	6.3306e-05
2	0	0	1	1	26.4417	-0.7964	-0.797286	-0.0903019	2	-0.000747741	7.19965e-05
2	0	0	1	1	26.5817	-0.810395	-0.811291	-0.100997	2	-0.000761153	8.19381e-05
2	0	0	0	1	26.7527	-0.827489	-0.828332	-0.115414	2	-0.000779657	9.56012e-05
2	0	0	1	1	26.8925	-0.841484	-0.842334	-0.12958	2	-0.000796855	0.00010915
2	0	0	1	1	27.0325	-0.855479	-0.856331	-0.145583	2	-0.000816185	0.000124668
2	0	0	1	1	27.1725	-0.869474	-0.870306	-0.164043	2	-0.000837927	0.000142768
2	0	0	1	1	27.3125	-0.883469	-0.884323	-0.1853	2	-0.000862443	0.000163865
2	0	0	0	1	27.4523	-0.897464	-0.898308	-0.209992	2	-0.000890131	0.000188638
2	1	0	0	0	27.5839	-0.889467	-0.890301	-0.184409	2	-0.000916481	0.000164179
2	1	0	1	0	27.7237	-0.875472	-0.876319	-0.15609	2	-0.000940104	0.000136784
2	1	0	1	0	27.8637	-0.861476	-0.862314	-0.132395	2	-0.000960147	0.000114166
2	1	0	1	0	28.0037	-0.847481	-0.848315	-0.112617	2	-0.000977166	9.55351e-05
2	1	0	1	0	28.1437	-0.833487	-0.834318	-0.095764	2	-0.000991628	7.98976e-05
2	1	0	0	0	28.2835	-0.819492	-0.82034	-0.0813896	2	-0.00100389	6.67671e-05
2	1	0	0	0	28.4235	-0.805497	-0.806336	-0.069169	2	-0.00101432	5.57735e-05
2	1	0	0	0	28.5635	-0.791502	-0.792332	-0.058686	2	-0.00102315	4.64988e-05
2	1	0	0	0	28.7035	-0.777507	-0.77832	-0.049605	2	-0.00103063	3.86086e-05
2	1	0	0	0	28.8743	-0.760413	-0.761229	-0.040246	2	-0.00103823	3.06364e-05
2	1	0	0	0	29.0143	-0.746418	-0.747233	-0.0339451	2	-0.00104337	2.53649e-05
2	1	0	0	0	29.1543	-0.732423	-0.733242	-0.028541	2	-0.0010477	2.09275e-05
2	1	0	1	0	29.2941	-0.718428	-0.719235	-0.0239817	2	-0.00105132	1.72485e-05
2	1	0	1	0	29.4341	-0.704433	-0.705231	-0.0201933	2	-0.00105437	1.42409e-05
2	1	0	1	0	29.5741	-0.690438	-0.69125	-0.0170597	2	-0.00105693	1.17925e-05
2	1	0	1	0	29.7141	-0.676443	-0.677236	-0.0143619	2	-0.00105909	9.72641e-06
2	1	0	0	0	29.8539	-0.662448	-0.663258	-0.0122112	2	-0.00106091	8.0992e-06
2	1	0	0	0	29.9939	-0.648453	-0.649244	-0.0104721	2	-0.00106246	6.79896e-06
2	1	0	0	0	30.1339	-0.634458	-0.635261	-0.00894867	2	-0.00106377	5.68474e-06
2	1	0	0	0	30.2739	-0.620463	-0.621266	-0.00775398	2	-0.0010649	4.81729e-06
2	1	0	1	0	30.4137	-0.606468	-0.607245	-0.00670805	2	-0.00106587	4.07343e-06
2	1	0	1	0	30.5537	-0.592473	-0.593256	-0.00579324	2	-0.00106671	3.43687e-06
2	1	0	1	0	30.6937	-0.578478	-0.57926	-0.00495247	2	-0.00106743	2.86877e-06
2	1	0	1	0	30.8637	-0.561484	-0.562268	-0.00390574	2	-0.00106817	2.19607e-06
2	1	0	0	0	31.0035	-0.547489	-0.548276	-0.0032215	2	-0.00106866	1.76627e-06
2	1	0	0	0	31.1435	-0.533494	-0.534279	-0.00257883	2	-0.00106907	1.37781e-06
2	1	0	0	0	31.2835	-0.519499	-0.520281	-0.00195266	2	-0.00106938	1.01593e-06
2	1	0	0	0	31.4235	-0.505504	-0.506278	-0.00134213	2	-0.00106961	6.79489e-07
2	1	0	1	0	31.5633	-0.491509	-0.49227	-0.000715415	2	-0.00106975	3.52178e-07
2	1	0	1	0	31.7033	-0.477514	-0.478284	-8.44272e-05	2	-0.00106981	4.03802e-08
2	1	0	1	0	31.8433	-0.463519	-0.464295	0.000555156	2	-0.00106977	2.57756e-07
2	1	0	1	0	31.9833	-0.449524	-0.450295	0.00121004	2	-0.00106965	5.44876e-07
2	1	0	0	0	32.1231	-0.435529	-0.436293	0.00189133	2	-0.00106943	8.25173e-07
2	1	0	0	0	32.2631	-0.421534	-0.422303	0.00255992	2	-0.00106912	1.08106e-06
2	1	0	0	0	32.4031	-0.407539	-0.408304	0.00330131	2	-0.00106871	1.34794e-06
2	1	0	0	0	32.5431	-0.393544	-0.3943	0.00400913	2	-0.0010682	1.5808e-06
2	1	0	1	0	32.6829	-0.379549	-0.380278	0.00475141	2	-0.00106758	1.80686e-06
2	1	0	1	0	32.8229	-0.365554	-0.3663	0.00550295	2	-0.00106686	2.01573e-06
2	1	0	1	0	32.9629	-0.351559	-0.3523	0.00624229	2	-0.00106604	2.19916e-06
2	1	0	1	0	33.1029	-0.337564	-0.3383	0.006991	2	-0.00106511	2.36505e-06
2	1	0	0	0	33.2427	-0.323569	-0.324316	0.00777929	2	-0.00106408	2.52295e-06
2	1	0	0	0	33.3827	-0.309574	-0.310327	0.00859582	2	-0.00106293	2.66752e-06
2	1	0	0	0	33.5227	-0.295579	-0.296295	0.00945519	2	-0.00106167	2.80153e-06
2	1	0	1	0	33.6937	-0.278485	-0.279254	0.0104116	2	-0.00105995	2.90748e-06
2	1	0	0	0	33.8335	-0.26449	-0.26525	0.0115294	2	-0.00105838	3.05816e-06
2	1	0	0	0	33.9735	-0.250495	-0.25125	0.0127798	2	-0.00105664	3.21092e-06
2	1	0	0	0	34.1135	-0.2365	-0.237243	0.0142228	2	-0.00105471	3.37425e-06
2	1	0	0	0	34.2535	-0.222505	-0.223266	0.0156841	2	-0.00105258	3.50173e-06
2	1	0	1	0	34.3933	-0.20851	-0.209274	0.0173287	2	-0.00105024	3.62644e-06
2	1	0	1	0	34.5333	-0.194515	-0.195275	0.0189944	2	-0.00104766	3.70913e-06
2	1	0	1	0	34.6733	-0.18052	-0.181271	0.0207207	2	-0.00104484	3.75607e-06
2	1	0	1	0	34.8133	-0.166525	-0.16728	0.0225133	2	-0.00104178	3.76603e-06
2	1	0	0	0	34.9531	-0.15253	-0.153303	0.0244078	2	-0.00103846	3.74179e-06
2	1	0	0	0	35.0931	-0.138535	-0.139283	0.0263147	2	-0.00103488	3.66518e-06
2	1	0	0	0	35.2331	-0.12454	-0.125314	0.0278827	2	-0.00103104	3.49408e-06
2	1	0	0	0	35.3731	-0.110545	-0.111278	0.02895	2	-0.00102702	3.2215e-06
2	1	0	1	0	35.5129	-0.0965499	-0.0972936	0.0290695	2	-0.00102291	2.82828e-06
2	1	0	1	0	35.6529	-0.0825549	-0.083293	0.0283074	2	-0.00101885	2.3578e-06
2	1	0	1	0	35.7929	-0.0685599	-0.0693069	0.0268047	2	-0.00101494	1.85775e-06
2	1	0	1	0	35.9329	-0.0545649	-0.055319	0.0249588	2	-0.00101128	1.38069e-06
2	1	0	1	0	35.9923	-0.0486183	-0.0493638	0.0242318	2	-0.0010098	1.19617e-06