File: TAP_Report/Data/MB_SHU/100 uM MB 10mM PB Second ITO_04_CV_C01_2.mpt
EC-Lab ASCII FILE
Nb header lines : 53

Cyclic Voltammetry

Run on channel : 1 (SN 0696)
User :
Electrode connection : standard
Ewe ctrl range : min = -10.00 V, max = 10.00 V
Ewe,I filtering : 50 kHz
Channel : Grounded
Acquisition started on : 05/17/2017 12:14:48
Saved on :
	File : 100 uM MB 10mM PB Second ITO_04_CV_C01.mpr
	Directory : \\userfs\st659\w2k\EC-Lab\Data\ITO Characterisation 17-5-17\
	Host : 144.32.136.43
Device : SP-300 (SN 0182)
Address : USB
EC-Lab for windows v10.44 (software)
Internet server v10.44 (firmware)
Command interpretor v10.44 (firmware)
Electrode material :
Initial state :
Electrolyte :
Comments :
Cable : standard
Electrode surface area : 0.001 cm²
Characteristic mass : 0.001 g
Equivalent Weight : 0.000 g/eq.
Density : 0.000 g/cm3
Ei (V)              0.000
vs.                 Eoc
dE/dt               250.000
dE/dt unit          mV/s
E1 (V)              0.100
vs.                 Ref
Step percent        50
N                   10
E range min (V)     -10.000
E range max (V)     10.000
I Range             Auto
I Range min         Unset
I Range max         Unset
I Range init        Unset
Bandwidth           8
E2 (V)              -0.600
vs.                 Ref
nc cycles           2
Reverse Scan        1
Ef (V)              0.000
vs.                 Eoc

mode	ox/red	error	control changes	counter inc.	time/s	control/V	Ewe/V	<I>/mA	cycle number	(Q-Qo)/C	P/W
2	1	0	1	1	392.339	-0.60016	-0.600401	-0.00713239	2	-1.27869e-05	4.2823e-06
2	1	0	1	1	392.386	-0.588348	-0.588561	-0.00538878	2	-1.30594e-05	3.17163e-06
2	1	0	0	1	392.439	-0.574987	-0.575214	-0.0047964	2	-1.33273e-05	2.75896e-06
2	1	0	0	1	392.492	-0.561692	-0.561892	-0.00436008	2	-1.35674e-05	2.44989e-06
2	1	0	1	1	392.546	-0.548347	-0.54855	-0.00401267	2	-1.37877e-05	2.20115e-06
2	1	0	0	1	392.599	-0.535013	-0.535209	-0.00372259	2	-1.39906e-05	1.99236e-06
2	1	0	0	1	392.652	-0.52169	-0.521898	-0.00347285	2	-1.41793e-05	1.81247e-06
2	1	0	1	1	392.706	-0.508345	-0.508564	-0.00325278	2	-1.43559e-05	1.65425e-06
2	1	0	1	1	392.759	-0.49505	-0.495246	-0.0030593	2	-1.45208e-05	1.5151e-06
2	1	0	0	1	392.812	-0.481689	-0.481915	-0.00288278	2	-1.46764e-05	1.38926e-06
2	1	0	0	1	392.866	-0.468394	-0.468614	-0.00272142	2	-1.48225e-05	1.27529e-06
2	1	0	1	1	392.919	-0.455049	-0.455219	-0.00256944	2	-1.49608e-05	1.16966e-06
2	1	0	1	1	392.972	-0.441737	-0.441934	-0.00243011	2	-1.50908e-05	1.07395e-06
2	1	0	0	1	393.026	-0.428392	-0.428596	-0.00229876	2	-1.5214e-05	9.85238e-07
2	1	0	1	1	393.079	-0.415048	-0.415271	-0.00216623	2	-1.53304e-05	8.99573e-07
2	1	0	1	1	393.132	-0.401736	-0.401958	-0.00204684	2	-1.54395e-05	8.22744e-07
2	1	0	0	1	393.186	-0.388391	-0.388612	-0.001928	2	-1.55426e-05	7.49243e-07
2	1	0	0	1	393.239	-0.375096	-0.375301	-0.00181036	2	-1.56391e-05	6.79429e-07
2	1	0	1	1	393.292	-0.361746	-0.361933	-0.00169555	2	-1.57297e-05	6.13676e-07
2	1	0	1	1	393.345	-0.34844	-0.348649	-0.00158495	2	-1.58141e-05	5.52593e-07
2	1	0	0	1	393.399	-0.335095	-0.335269	-0.00146966	2	-1.58927e-05	4.92733e-07
2	1	0	1	1	393.452	-0.32175	-0.321913	-0.00135255	2	-1.59651e-05	4.35404e-07
2	1	0	1	1	393.505	-0.308438	-0.308614	-0.00123133	2	-1.6031e-05	3.80006e-07
2	1	0	0	1	393.559	-0.295093	-0.29524	-0.00109461	2	-1.60903e-05	3.23172e-07
2	1	0	0	1	393.612	-0.281798	-0.281936	-0.000948201	2	-1.61417e-05	2.67332e-07
2	1	0	1	1	393.665	-0.268437	-0.268585	-0.000767701	2	-1.61848e-05	2.06193e-07
2	1	0	1	1	393.719	-0.255142	-0.255318	-0.000548562	2	-1.6217e-05	1.40057e-07
2	1	0	0	1	393.772	-0.241797	-0.241973	-0.000265908	2	-1.62362e-05	6.43427e-08
2	1	0	1	1	393.825	-0.228463	-0.228636	9.7048e-05	2	-1.62383e-05	2.21886e-08
2	1	0	1	1	393.879	-0.21514	-0.215306	0.000559091	2	-1.62183e-05	1.20376e-07
2	1	0	0	1	393.932	-0.201796	-0.201954	0.00114083	2	-1.61705e-05	2.30395e-07
2	1	0	0	1	393.985	-0.188501	-0.188675	0.00182199	2	-1.60889e-05	3.43763e-07
2	1	0	1	1	394.039	-0.175139	-0.175286	0.00256497	2	-1.59685e-05	4.49603e-07
2	1	0	1	1	394.092	-0.161844	-0.162002	0.0032041	2	-1.58112e-05	5.1907e-07
2	1	0	0	1	394.145	-0.148499	-0.148649	0.00360748	2	-1.56253e-05	5.36249e-07
2	1	0	0	1	394.198	-0.135188	-0.135331	0.00368767	2	-1.5427e-05	4.99058e-07
2	1	0	1	1	394.252	-0.121843	-0.12197	0.00350419	2	-1.52313e-05	4.27405e-07
2	1	0	0	1	394.305	-0.108498	-0.108621	0.00319479	2	-1.50494e-05	3.47021e-07
2	1	0	0	1	394.358	-0.0951862	-0.0953057	0.00287741	2	-1.48854e-05	2.74233e-07
2	1	0	1	1	394.412	-0.0818412	-0.0819893	0.00260352	2	-1.47366e-05	2.13461e-07
2	1	0	1	1	394.465	-0.0685463	-0.0686928	0.00239499	2	-1.4601e-05	1.64519e-07
2	1	0	0	1	394.518	-0.0551959	-0.0553441	0.00223153	2	-1.44749e-05	1.23502e-07
2	1	0	0	1	394.572	-0.0418898	-0.042038	0.00211204	2	-1.43566e-05	8.87861e-08
2	1	0	1	1	394.625	-0.0285449	-0.0286771	0.00201654	2	-1.42437e-05	5.78285e-08
2	1	0	0	1	394.678	-0.0152	-0.0153412	0.00194439	2	-1.41352e-05	2.98294e-08
2	1	0	0	1	394.732	-0.0018884	-0.00204119	0.00188724	2	-1.40304e-05	3.85221e-09
2	1	0	1	1	394.785	0.0114565	0.011344	0.00184307	2	-1.39279e-05	2.09078e-08
2	1	0	1	1	394.838	0.0247514	0.0246565	0.00181227	2	-1.38278e-05	4.46842e-08
2	1	0	0	1	394.892	0.038113	0.0380196	0.00179153	2	-1.37288e-05	6.81135e-08
2	1	0	0	1	394.945	0.0514079	0.0512987	0.00177089	2	-1.36312e-05	9.08442e-08
2	1	0	1	1	394.998	0.0647528	0.0646686	0.0017587	2	-1.35339e-05	1.13733e-07
2	1	0	1	1	395.051	0.0780644	0.0779908	0.00175952	2	-1.34375e-05	1.37227e-07
2	1	0	0	1	395.105	0.0914093	0.0913046	0.00175619	2	-1.33408e-05	1.60348e-07
2	0	0	0	1	395.146	0.0980901	0.0979553	0.00121111	2	-1.32699e-05	1.18635e-07
2	0	0	1	1	395.2	0.0847452	0.0845972	0.000761023	2	-1.32228e-05	6.43804e-08
2	0	0	1	1	395.253	0.0714336	0.0713146	0.000528877	2	-1.31917e-05	3.77166e-08
2	0	0	0	1	395.306	0.0580887	0.0579707	0.000345774	2	-1.31714e-05	2.00448e-08
2	0	0	1	1	395.36	0.0447438	0.0446092	0.000183244	2	-1.31603e-05	8.17438e-09
2	0	0	1	1	395.413	0.0314322	0.0312819	3.94399e-05	2	-1.31574e-05	1.23375e-09
2	0	0	1	1	395.497	0.0104402	0.0101989	-0.000214508	2	-1.31682e-05	2.18775e-09
2	0	0	0	1	395.55	-0.00290467	-0.00317869	-0.000334353	2	-1.31832e-05	1.06281e-09
2	0	0	0	1	395.604	-0.0162163	-0.0165159	-0.000449926	2	-1.32045e-05	7.43092e-09
2	0	0	1	1	395.657	-0.0295612	-0.0298359	-0.000565531	2	-1.32319e-05	1.68731e-08
2	0	0	1	1	395.71	-0.0428561	-0.0431307	-0.00067733	2	-1.32652e-05	2.92137e-08
2	0	0	0	1	395.764	-0.0562177	-0.0565181	-0.000791721	2	-1.33047e-05	4.47466e-08
2	0	0	0	1	395.817	-0.0695126	-0.0697908	-0.000901926	2	-1.335e-05	6.29462e-08
2	0	0	0	1	395.901	-0.0905046	-0.0906727	-0.00105381	2	-1.34337e-05	9.55518e-08
2	0	0	1	1	395.954	-0.103866	-0.104022	-0.00120908	2	-1.34971e-05	1.2577e-07
2	0	0	1	1	396.007	-0.117161	-0.117326	-0.00140485	2	-1.35693e-05	1.64825e-07
2	0	0	0	1	396.061	-0.130506	-0.130712	-0.0016594	2	-1.36537e-05	2.16905e-07
2	0	0	0	1	396.114	-0.143818	-0.144009	-0.0019948	2	-1.37534e-05	2.87268e-07
2	0	0	1	1	396.167	-0.157163	-0.15733	-0.00243836	2	-1.38743e-05	3.83627e-07
2	0	0	0	1	396.221	-0.170507	-0.170712	-0.00300734	2	-1.40221e-05	5.13388e-07
2	0	0	0	1	396.274	-0.183802	-0.184006	-0.00369068	2	-1.42027e-05	6.79108e-07
2	0	0	1	1	396.327	-0.197164	-0.197361	-0.00443965	2	-1.44228e-05	8.76216e-07
2	0	0	1	1	396.381	-0.210459	-0.210652	-0.00516807	2	-1.46819e-05	1.08866e-06
2	0	0	0	1	396.434	-0.223804	-0.224035	-0.00571544	2	-1.49765e-05	1.28046e-06
2	0	0	0	1	396.487	-0.237115	-0.237337	-0.00596608	2	-1.52914e-05	1.41597e-06
2	0	0	1	1	396.541	-0.25046	-0.250679	-0.00595943	2	-1.56137e-05	1.4939e-06
2	0	0	0	1	396.594	-0.263805	-0.263992	-0.00577598	2	-1.59304e-05	1.52481e-06
2	0	0	0	1	396.647	-0.277117	-0.277309	-0.00552719	2	-1.62341e-05	1.53274e-06
2	0	0	1	1	396.701	-0.290462	-0.290652	-0.00527401	2	-1.65253e-05	1.5329e-06
2	0	0	1	1	396.754	-0.303757	-0.303964	-0.00506434	2	-1.68031e-05	1.53938e-06
2	0	0	0	1	396.807	-0.317113	-0.317359	-0.00489816	2	-1.70719e-05	1.55448e-06
2	0	0	0	1	396.86	-0.330413	-0.330614	-0.00477114	2	-1.73316e-05	1.57741e-06
2	0	0	1	1	396.914	-0.343758	-0.344016	-0.00468452	2	-1.75868e-05	1.61155e-06
2	0	0	0	1	396.967	-0.357103	-0.357346	-0.00462521	2	-1.78381e-05	1.6528e-06
2	0	0	0	1	397.02	-0.370415	-0.370634	-0.00459384	2	-1.8086e-05	1.70263e-06
2	0	0	1	1	397.074	-0.383759	-0.384007	-0.00458526	2	-1.83339e-05	1.76077e-06
2	0	0	1	1	397.127	-0.397054	-0.397299	-0.00458529	2	-1.85807e-05	1.82173e-06
2	0	0	0	1	397.18	-0.410416	-0.410643	-0.00460819	2	-1.8829e-05	1.89232e-06
2	0	0	0	1	397.234	-0.423711	-0.423962	-0.00463633	2	-1.90776e-05	1.96563e-06
2	0	0	1	1	397.287	-0.437056	-0.437286	-0.00467441	2	-1.9329e-05	2.04405e-06
2	0	0	1	1	397.34	-0.450367	-0.450569	-0.00472409	2	-1.95818e-05	2.12853e-06
2	0	0	0	1	397.394	-0.463712	-0.463933	-0.00477891	2	-1.98385e-05	2.21709e-06
2	0	0	1	1	397.447	-0.477057	-0.477288	-0.00485382	2	-2.00987e-05	2.31667e-06
2	0	0	1	1	397.5	-0.490352	-0.490583	-0.00493483	2	-2.0362e-05	2.42094e-06
2	0	0	0	1	397.554	-0.503714	-0.503945	-0.00503332	2	-2.06309e-05	2.53652e-06
2	0	0	0	1	397.607	-0.517009	-0.517237	-0.00513938	2	-2.09044e-05	2.65828e-06
2	0	0	1	1	397.66	-0.530354	-0.53059	-0.00527492	2	-2.11854e-05	2.79882e-06
2	0	0	1	1	397.713	-0.543665	-0.543901	-0.00542862	2	-2.14729e-05	2.95263e-06
2	0	0	0	1	397.767	-0.55701	-0.557249	-0.00561759	2	-2.17705e-05	3.13039e-06
2	0	0	1	1	397.82	-0.570355	-0.570606	-0.00582371	2	-2.20788e-05	3.32305e-06
2	0	0	1	1	397.873	-0.583667	-0.583901	-0.00607963	2	-2.23981e-05	3.5499e-06
2	0	0	0	1	397.927	-0.597011	-0.597241	-0.00636369	2	-2.27331e-05	3.80065e-06
2	0	0	0	1	397.938	-0.599827	-0.600035	-0.00643145	2	-2.28052e-05	3.8591e-06