File: TAP_Report/Data/MB_SHU/100 uM MB 10mM PB Second ITO_06_CV_C01_2.mpt
EC-Lab ASCII FILE
Nb header lines : 53

Cyclic Voltammetry

Run on channel : 1 (SN 0696)
User :
Electrode connection : standard
Ewe ctrl range : min = -10.00 V, max = 10.00 V
Ewe,I filtering : 50 kHz
Channel : Grounded
Acquisition started on : 05/17/2017 12:14:48
Saved on :
	File : 100 uM MB 10mM PB Second ITO_06_CV_C01.mpr
	Directory : \\userfs\st659\w2k\EC-Lab\Data\ITO Characterisation 17-5-17\
	Host : 144.32.136.43
Device : SP-300 (SN 0182)
Address : USB
EC-Lab for windows v10.44 (software)
Internet server v10.44 (firmware)
Command interpretor v10.44 (firmware)
Electrode material :
Initial state :
Electrolyte :
Comments :
Cable : standard
Electrode surface area : 0.001 cm²
Characteristic mass : 0.001 g
Equivalent Weight : 0.000 g/eq.
Density : 0.000 g/cm3
Ei (V)              0.000
vs.                 Eoc
dE/dt               1000.000
dE/dt unit          mV/s
E1 (V)              0.100
vs.                 Ref
Step percent        50
N                   10
E range min (V)     -10.000
E range max (V)     10.000
I Range             Auto
I Range min         Unset
I Range max         Unset
I Range init        Unset
Bandwidth           8
E2 (V)              -0.600
vs.                 Ref
nc cycles           2
Reverse Scan        1
Ef (V)              0.000
vs.                 Eoc

mode	ox/red	error	control changes	counter inc.	time/s	control/V	Ewe/V	<I>/mA	cycle number	(Q-Qo)/C	P/W
2	1	0	0	1	418.566	-0.60016	-0.60034	-0.0114342	2	-5.7253e-06	6.86442e-06
2	1	0	1	1	418.574	-0.591597	-0.591819	-0.007338	2	-5.7984e-06	4.34277e-06
2	1	0	1	1	418.584	-0.581601	-0.581804	-0.00604531	2	-5.86408e-06	3.51719e-06
2	1	0	1	1	418.594	-0.571605	-0.571808	-0.00527398	2	-5.92e-06	3.01571e-06
2	1	0	1	1	418.604	-0.561608	-0.561821	-0.00469297	2	-5.96927e-06	2.63661e-06
2	1	0	1	1	418.614	-0.551612	-0.551806	-0.00421967	2	-6.01335e-06	2.32844e-06
2	1	0	1	1	418.624	-0.541616	-0.541799	-0.00383646	2	-6.05316e-06	2.07859e-06
2	1	0	1	1	418.634	-0.53162	-0.531829	-0.0035127	2	-6.08941e-06	1.86816e-06
2	1	0	1	1	418.644	-0.521624	-0.521838	-0.00321774	2	-6.12258e-06	1.67914e-06
2	1	0	1	1	418.654	-0.511627	-0.511852	-0.00295909	2	-6.153e-06	1.51462e-06
2	1	0	1	1	418.664	-0.501631	-0.501836	-0.00272368	2	-6.18097e-06	1.36684e-06
2	1	0	1	1	418.674	-0.491635	-0.491827	-0.00251345	2	-6.2067e-06	1.23618e-06
2	1	0	1	1	418.684	-0.481639	-0.481849	-0.00232509	2	-6.23044e-06	1.12034e-06
2	1	0	1	1	418.694	-0.471643	-0.471849	-0.0021385	2	-6.25226e-06	1.00905e-06
2	1	0	1	1	418.704	-0.461647	-0.461831	-0.00196022	2	-6.27227e-06	9.05288e-07
2	1	0	0	1	418.745	-0.421395	-0.421572	-0.00133782	2	-6.34285e-06	5.63987e-07
2	1	0	0	1	418.755	-0.411399	-0.411557	-0.00119203	2	-6.35534e-06	4.9059e-07
2	1	0	0	1	418.765	-0.401403	-0.401621	-0.00106757	2	-6.36647e-06	4.28759e-07
2	1	0	0	1	418.775	-0.391407	-0.39159	-0.000924634	2	-6.37625e-06	3.62078e-07
2	1	0	0	1	418.785	-0.38141	-0.381612	-0.000788654	2	-6.38468e-06	3.0096e-07
2	1	0	0	1	418.795	-0.371414	-0.371583	-0.000660514	2	-6.39176e-06	2.45436e-07
2	1	0	0	1	418.805	-0.361418	-0.361583	-0.000533682	2	-6.39753e-06	1.9297e-07
2	1	0	0	1	418.815	-0.351422	-0.351611	-0.000399511	2	-6.40201e-06	1.40473e-07
2	1	0	0	1	418.825	-0.341426	-0.341593	-0.000262287	2	-6.40512e-06	8.95953e-08
2	1	0	0	1	418.835	-0.331429	-0.331595	-0.000120856	2	-6.40681e-06	4.00752e-08
2	1	0	0	1	418.845	-0.321433	-0.321588	2.23526e-05	2	-6.4071e-06	7.18831e-09
2	1	0	0	1	418.855	-0.311437	-0.311612	0.000176727	2	-6.40593e-06	5.50703e-08
2	1	0	0	1	418.865	-0.301441	-0.301601	0.000346881	2	-6.4031e-06	1.0462e-07
2	1	0	0	1	418.875	-0.291445	-0.291576	0.000538386	2	-6.39846e-06	1.56981e-07
2	1	0	0	1	418.885	-0.281448	-0.281553	0.000750856	2	-6.39184e-06	2.11406e-07
2	1	0	0	1	418.895	-0.271386	-0.271524	0.00101942	2	-6.38295e-06	2.76796e-07
2	1	0	0	1	418.905	-0.261389	-0.261513	0.00129086	2	-6.37129e-06	3.37577e-07
2	1	0	0	1	418.915	-0.251393	-0.251541	0.00162782	2	-6.35659e-06	4.09463e-07
2	1	0	0	1	418.925	-0.241397	-0.241545	0.00204806	2	-6.33806e-06	4.947e-07
2	1	0	0	1	418.935	-0.231401	-0.23157	0.00253175	2	-6.31504e-06	5.86277e-07
2	1	0	0	1	418.945	-0.221405	-0.221557	0.00312881	2	-6.28661e-06	6.93211e-07
2	1	0	0	1	418.955	-0.211409	-0.211541	0.00380216	2	-6.25184e-06	8.04312e-07
2	1	0	0	1	418.965	-0.201412	-0.201533	0.00454838	2	-6.2099e-06	9.1665e-07
2	1	0	0	1	418.975	-0.191416	-0.191542	0.00536887	2	-6.16018e-06	1.02836e-06
2	1	0	0	1	418.985	-0.18142	-0.181561	0.00622068	2	-6.10202e-06	1.12943e-06
2	1	0	0	1	418.995	-0.171424	-0.171565	0.0070778	2	-6.03518e-06	1.2143e-06
2	1	0	0	1	419.005	-0.161428	-0.161549	0.0078991	2	-5.95991e-06	1.27609e-06
2	1	0	0	1	419.015	-0.151431	-0.151539	0.00865705	2	-5.87669e-06	1.31188e-06
2	1	0	0	1	419.025	-0.141435	-0.141549	0.00923324	2	-5.78678e-06	1.30695e-06
2	1	0	0	1	419.035	-0.131439	-0.131554	0.00964023	2	-5.69196e-06	1.26821e-06
2	1	0	1	1	419.074	-0.0915875	-0.0917328	0.00917575	2	-5.30904e-06	8.41717e-07
2	1	0	1	1	419.084	-0.0815914	-0.0817458	0.00870381	2	-5.21927e-06	7.115e-07
2	1	0	1	1	419.094	-0.0715952	-0.0717499	0.00824179	2	-5.13413e-06	5.91348e-07
2	1	0	1	1	419.104	-0.061599	-0.0617758	0.00779321	2	-5.05363e-06	4.81432e-07
2	1	0	1	1	419.114	-0.0516028	-0.0517827	0.00738982	2	-4.97732e-06	3.82665e-07
2	1	0	1	1	419.124	-0.0416066	-0.0417789	0.00705457	2	-4.90479e-06	2.94733e-07
2	1	0	1	1	419.134	-0.0316104	-0.0317732	0.00675654	2	-4.83546e-06	2.14677e-07
2	1	0	1	1	419.144	-0.0216142	-0.0217428	0.00649511	2	-4.76886e-06	1.41222e-07
2	1	0	1	1	419.154	-0.011618	-0.0117652	0.00627472	2	-4.70476e-06	7.38237e-08
2	1	0	1	1	419.164	-0.00162183	-0.00178883	0.00607542	2	-4.6426e-06	1.08679e-08
2	1	0	1	1	419.174	0.00837436	0.00823909	0.00591876	2	-4.58217e-06	4.87652e-08
2	1	0	1	1	419.184	0.0183705	0.0182628	0.00576498	2	-4.52335e-06	1.05285e-07
2	1	0	1	1	419.194	0.0283667	0.0282566	0.00564098	2	-4.46591e-06	1.59395e-07
2	1	0	1	1	419.204	0.0383629	0.0382323	0.00552895	2	-4.4096e-06	2.11384e-07
2	1	0	1	1	419.214	0.0483591	0.0482738	0.00544079	2	-4.35427e-06	2.62648e-07
2	1	0	1	1	419.224	0.0583553	0.0582822	0.00535678	2	-4.29984e-06	3.12205e-07
2	1	0	1	1	419.234	0.0683515	0.0682289	0.00528973	2	-4.24617e-06	3.60913e-07
2	1	0	1	1	419.244	0.0784143	0.0783126	0.00524943	2	-4.19307e-06	4.11096e-07
2	1	0	1	1	419.254	0.0884105	0.0882793	0.00517773	2	-4.14061e-06	4.57086e-07
2	1	0	1	1	419.264	0.0982016	0.098085	0.00513937	2	-4.08969e-06	5.04095e-07
2	0	0	1	1	419.268	0.09834	0.0982293	0.00363357	2	-4.07163e-06	3.56923e-07
2	0	0	1	1	419.278	0.0883438	0.0882069	0.00198159	2	-4.04665e-06	1.7479e-07
2	0	0	1	1	419.288	0.0783476	0.0782486	0.00145669	2	-4.03011e-06	1.13984e-07
2	0	0	0	1	419.298	0.0684847	0.0683718	0.00107782	2	-4.0183e-06	7.36926e-08
2	0	0	0	1	419.308	0.0584886	0.0584065	0.000776999	2	-4.00951e-06	4.53818e-08
2	0	0	0	1	419.318	0.0484924	0.0484006	0.000515359	2	-4.00355e-06	2.49437e-08
2	0	0	0	1	419.328	0.0384962	0.038375	0.000283392	2	-4.00007e-06	1.08752e-08
2	0	0	0	1	419.338	0.0285	0.0283661	6.92105e-05	2	-3.99879e-06	1.96323e-09
2	0	0	0	1	419.348	0.0185038	0.0183741	-0.000125265	2	-3.9995e-06	2.30163e-09
2	0	0	0	1	419.358	0.00850764	0.0083622	-0.00030999	2	-4.00211e-06	2.5922e-09
2	0	0	0	1	419.383	-0.0165131	-0.016722	-0.000785051	2	-4.01495e-06	1.31277e-08
2	0	0	0	1	419.408	-0.0414733	-0.0416937	-0.0011784	2	-4.03371e-06	4.91318e-08
2	0	0	0	1	419.418	-0.0514695	-0.0516791	-0.00133927	2	-4.04644e-06	6.92123e-08
2	0	0	0	1	419.428	-0.0614657	-0.0616856	-0.00150505	2	-4.06082e-06	9.28396e-08
2	0	0	0	1	419.438	-0.0714619	-0.0716568	-0.00167917	2	-4.0769e-06	1.20324e-07
2	0	0	0	1	419.448	-0.0814581	-0.0816588	-0.0018709	2	-4.09486e-06	1.52775e-07
2	0	0	0	1	419.458	-0.0914543	-0.0916447	-0.00208997	2	-4.11483e-06	1.91535e-07
2	0	0	0	1	419.468	-0.101517	-0.101708	-0.00235587	2	-4.13727e-06	2.39611e-07
2	0	0	0	1	419.478	-0.111513	-0.111666	-0.00263657	2	-4.16234e-06	2.94415e-07
2	0	0	0	1	419.488	-0.121509	-0.121673	-0.0029908	2	-4.19064e-06	3.63901e-07
2	0	0	0	1	419.498	-0.131506	-0.131714	-0.00342049	2	-4.22287e-06	4.50527e-07
2	0	0	0	1	419.508	-0.141502	-0.141702	-0.00391718	2	-4.25968e-06	5.55071e-07
2	0	0	0	1	419.518	-0.151498	-0.151702	-0.00451064	2	-4.30193e-06	6.84273e-07
2	0	0	0	1	419.528	-0.161494	-0.161707	-0.00517043	2	-4.35049e-06	8.36094e-07
2	0	0	0	1	419.538	-0.17149	-0.171704	-0.00590828	2	-4.40606e-06	1.01447e-06
2	0	0	0	1	419.548	-0.181487	-0.1817	-0.00671516	2	-4.46932e-06	1.22015e-06
2	0	0	0	1	419.558	-0.191483	-0.191699	-0.00752494	2	-4.54075e-06	1.44253e-06
2	0	0	0	1	419.568	-0.201479	-0.201688	-0.00838367	2	-4.62044e-06	1.69089e-06
2	0	0	0	1	419.578	-0.211475	-0.211688	-0.00920898	2	-4.70872e-06	1.94943e-06
2	0	0	0	1	419.588	-0.221471	-0.221699	-0.00998726	2	-4.80494e-06	2.21416e-06
2	0	0	0	1	419.628	-0.261456	-0.261609	-0.0118863	2	-5.22429e-06	3.10957e-06
2	0	0	0	1	419.638	-0.271452	-0.27161	-0.011966	2	-5.34412e-06	3.25007e-06
2	0	0	0	1	419.648	-0.281515	-0.281669	-0.0119333	2	-5.4642e-06	3.36126e-06
2	0	0	0	1	419.658	-0.291511	-0.291669	-0.011722	2	-5.58298e-06	3.41895e-06
2	0	0	0	1	419.668	-0.301507	-0.301689	-0.0114561	2	-5.6994e-06	3.45618e-06
2	0	0	0	1	419.678	-0.311504	-0.311709	-0.0111279	2	-5.81274e-06	3.46866e-06
2	0	0	0	1	419.688	-0.3215	-0.321689	-0.0107992	2	-5.92278e-06	3.47398e-06
2	0	0	0	1	419.698	-0.331496	-0.331683	-0.0104602	2	-6.02939e-06	3.46948e-06
2	0	0	0	1	419.708	-0.341492	-0.341702	-0.0101865	2	-6.1329e-06	3.48075e-06
2	0	0	0	1	419.718	-0.351488	-0.351699	-0.00988522	2	-6.23362e-06	3.47662e-06
2	0	0	0	1	419.728	-0.361485	-0.361683	-0.00967175	2	-6.33188e-06	3.49811e-06
2	0	0	0	1	419.738	-0.371481	-0.371684	-0.00949343	2	-6.42798e-06	3.52856e-06
2	0	0	0	1	419.748	-0.381477	-0.381685	-0.0093349	2	-6.52239e-06	3.56299e-06
2	0	0	0	1	419.758	-0.391473	-0.391691	-0.00920056	2	-6.61555e-06	3.60378e-06
2	0	0	0	1	419.768	-0.401469	-0.401693	-0.00909787	2	-6.70749e-06	3.65455e-06
2	0	0	0	1	419.778	-0.411466	-0.411659	-0.00902146	2	-6.79854e-06	3.71377e-06
2	0	0	0	1	419.788	-0.421462	-0.421684	-0.00897174	2	-6.88899e-06	3.78324e-06
2	0	0	0	1	419.798	-0.431458	-0.431665	-0.00894014	2	-6.97891e-06	3.85915e-06
2	0	0	0	1	419.808	-0.441454	-0.441651	-0.00889465	2	-7.06852e-06	3.92833e-06
2	0	0	1	1	419.818	-0.451317	-0.451505	-0.00890539	2	-7.15617e-06	4.02083e-06
2	0	0	1	1	419.828	-0.461313	-0.46151	-0.00890785	2	-7.24554e-06	4.11106e-06
2	0	0	1	1	419.838	-0.471309	-0.471532	-0.00893275	2	-7.33508e-06	4.21208e-06
2	0	0	1	1	419.848	-0.481306	-0.48151	-0.00893219	2	-7.42482e-06	4.30094e-06
2	0	0	1	1	419.858	-0.491302	-0.491492	-0.0089737	2	-7.51479e-06	4.4105e-06
2	0	0	1	1	419.868	-0.501298	-0.50152	-0.00903919	2	-7.6052e-06	4.53333e-06
2	0	0	1	1	419.878	-0.511294	-0.51152	-0.00908212	2	-7.69626e-06	4.64569e-06
2	0	0	1	1	419.888	-0.52129	-0.52149	-0.0091657	2	-7.78789e-06	4.77982e-06
2	0	0	1	1	419.898	-0.531287	-0.531486	-0.00926866	2	-7.88048e-06	4.92616e-06
2	0	0	1	1	419.908	-0.541283	-0.541471	-0.00935336	2	-7.97398e-06	5.06458e-06
2	0	0	1	1	419.918	-0.551279	-0.551472	-0.00950186	2	-8.06866e-06	5.24001e-06
2	0	0	1	1	419.928	-0.561275	-0.561482	-0.00964897	2	-8.16484e-06	5.41772e-06
2	0	0	1	1	419.938	-0.571271	-0.571486	-0.00982303	2	-8.26263e-06	5.61372e-06
2	0	0	1	1	419.948	-0.581268	-0.581458	-0.0100231	2	-8.36225e-06	5.82802e-06
2	0	0	1	1	419.958	-0.591264	-0.591459	-0.0102606	2	-8.46409e-06	6.06875e-06
2	0	0	1	1	419.966	-0.599827	-0.600005	-0.0104899	2	-8.5524e-06	6.29397e-06