File: TAP_Report/Data/MB_SHU/100 uM MB 10mM PB Second ITO_05_CV_C01_2.mpt
EC-Lab ASCII FILE
Nb header lines : 53

Cyclic Voltammetry

Run on channel : 1 (SN 0696)
User :
Electrode connection : standard
Ewe ctrl range : min = -10.00 V, max = 10.00 V
Ewe,I filtering : 50 kHz
Channel : Grounded
Acquisition started on : 05/17/2017 12:14:48
Saved on :
	File : 100 uM MB 10mM PB Second ITO_05_CV_C01.mpr
	Directory : \\userfs\st659\w2k\EC-Lab\Data\ITO Characterisation 17-5-17\
	Host : 144.32.136.43
Device : SP-300 (SN 0182)
Address : USB
EC-Lab for windows v10.44 (software)
Internet server v10.44 (firmware)
Command interpretor v10.44 (firmware)
Electrode material :
Initial state :
Electrolyte :
Comments :
Cable : standard
Electrode surface area : 0.001 cm²
Characteristic mass : 0.001 g
Equivalent Weight : 0.000 g/eq.
Density : 0.000 g/cm3
Ei (V)              0.000
vs.                 Eoc
dE/dt               500.000
dE/dt unit          mV/s
E1 (V)              0.100
vs.                 Ref
Step percent        50
N                   10
E range min (V)     -10.000
E range max (V)     10.000
I Range             Auto
I Range min         Unset
I Range max         Unset
I Range init        Unset
Bandwidth           8
E2 (V)              -0.600
vs.                 Ref
nc cycles           2
Reverse Scan        1
Ef (V)              0.000
vs.                 Eoc

mode	ox/red	error	control changes	counter inc.	time/s	control/V	Ewe/V	<I>/mA	cycle number	(Q-Qo)/C	P/W
2	1	0	0	1	409.789	-0.60016	-0.600481	-0.00871451	2	-8.11474e-06	5.2329e-06
2	1	0	1	1	409.813	-0.588365	-0.588566	-0.00590026	2	-8.2705e-06	3.47269e-06
2	1	0	1	1	409.839	-0.57497	-0.575154	-0.00509329	2	-8.41594e-06	2.92943e-06
2	1	0	0	1	409.866	-0.561675	-0.561847	-0.00454112	2	-8.54278e-06	2.55141e-06
2	1	0	1	1	409.893	-0.54838	-0.548532	-0.00411075	2	-8.65667e-06	2.25488e-06
2	1	0	1	1	409.919	-0.535007	-0.535155	-0.00374832	2	-8.76052e-06	2.00593e-06
2	1	0	0	1	409.946	-0.521657	-0.521829	-0.00345297	2	-8.85571e-06	1.80186e-06
2	1	0	1	1	409.973	-0.508362	-0.508558	-0.00319649	2	-8.94315e-06	1.6256e-06
2	1	0	0	1	409.999	-0.495067	-0.495232	-0.00296494	2	-9.02402e-06	1.46833e-06
2	1	0	0	1	410.026	-0.481672	-0.481847	-0.0027556	2	-9.09967e-06	1.32778e-06
2	1	0	1	1	410.053	-0.468377	-0.468558	-0.00256287	2	-9.1694e-06	1.20085e-06
2	1	0	0	1	410.079	-0.455082	-0.455238	-0.00238334	2	-9.23419e-06	1.08499e-06
2	1	0	1	1	410.106	-0.441754	-0.441927	-0.0022192	2	-9.29443e-06	9.80723e-07
2	1	0	1	1	410.133	-0.428359	-0.428526	-0.00205916	2	-9.3508e-06	8.82402e-07
2	1	0	0	1	410.159	-0.415064	-0.415252	-0.0019104	2	-9.40265e-06	7.93296e-07
2	1	0	1	1	410.186	-0.401769	-0.401961	-0.00176493	2	-9.45054e-06	7.09434e-07
2	1	0	1	1	410.213	-0.388374	-0.388547	-0.00162233	2	-9.49492e-06	6.3035e-07
2	1	0	0	1	410.239	-0.375079	-0.375252	-0.00148126	2	-9.53518e-06	5.55845e-07
2	1	0	1	1	410.266	-0.361773	-0.361941	-0.00133914	2	-9.57174e-06	4.84688e-07
2	1	0	0	1	410.292	-0.348456	-0.348641	-0.00120132	2	-9.6046e-06	4.1883e-07
2	1	0	0	1	410.319	-0.335061	-0.335181	-0.00105626	2	-9.63391e-06	3.5404e-07
2	1	0	1	1	410.346	-0.321766	-0.321905	-0.000911804	2	-9.6592e-06	2.93514e-07
2	1	0	0	1	410.372	-0.308472	-0.308617	-0.00075437	2	-9.68049e-06	2.32811e-07
2	1	0	0	1	410.399	-0.295077	-0.295211	-0.0005688	2	-9.69743e-06	1.67916e-07
2	1	0	1	1	410.426	-0.281782	-0.281886	-0.000374703	2	-9.70918e-06	1.05624e-07
2	1	0	0	1	410.452	-0.268453	-0.268585	-0.000132714	2	-9.71504e-06	3.5645e-08
2	1	0	1	1	410.479	-0.255159	-0.2553	0.000173161	2	-9.71363e-06	4.42079e-08
2	1	0	1	1	410.506	-0.241764	-0.241898	0.00056781	2	-9.70293e-06	1.37352e-07
2	1	0	0	1	410.532	-0.228469	-0.228621	0.00105904	2	-9.68052e-06	2.42119e-07
2	1	0	1	1	410.559	-0.215174	-0.215334	0.0016828	2	-9.6432e-06	3.62364e-07
2	1	0	1	1	410.586	-0.201779	-0.20189	0.00244858	2	-9.58698e-06	4.94343e-07
2	1	0	0	1	410.612	-0.188484	-0.188645	0.00329443	2	-9.50983e-06	6.21478e-07
2	1	0	1	1	410.639	-0.175156	-0.175296	0.00420997	2	-9.40894e-06	7.37991e-07
2	1	0	0	1	410.666	-0.161861	-0.161991	0.00506192	2	-9.28442e-06	8.19988e-07
2	1	0	0	1	410.692	-0.148466	-0.148559	0.00571368	2	-9.13839e-06	8.48821e-07
2	1	0	1	1	410.719	-0.135171	-0.135282	0.00603031	2	-8.9805e-06	8.15792e-07
2	1	0	0	1	410.746	-0.121876	-0.121982	0.00600287	2	-8.81864e-06	7.32244e-07
2	1	0	0	1	410.772	-0.108481	-0.108568	0.00569202	2	-8.66045e-06	6.1797e-07
2	1	0	1	1	410.799	-0.0951528	-0.0952569	0.00526868	2	-8.51369e-06	5.01878e-07
2	1	0	0	1	410.826	-0.0818579	-0.0819677	0.00482177	2	-8.37878e-06	3.95229e-07
2	1	0	1	1	410.852	-0.068563	-0.0686687	0.0044443	2	-8.25484e-06	3.05184e-07
2	1	0	1	1	410.879	-0.0551681	-0.0552942	0.00413153	2	-8.13932e-06	2.28449e-07
2	1	0	0	1	410.906	-0.0418731	-0.042002	0.00389034	2	-8.03192e-06	1.63402e-07
2	1	0	1	1	410.932	-0.0285782	-0.0286722	0.00369724	2	-7.93024e-06	1.06008e-07
2	1	0	1	1	410.959	-0.0151833	-0.0152959	0.00354528	2	-7.83242e-06	5.42283e-08
2	1	0	0	1	410.986	-0.00185507	-0.00198997	0.00342043	2	-7.73893e-06	6.80655e-09
2	1	0	1	1	411.012	0.0114399	0.0113542	0.00331833	2	-7.64834e-06	3.76769e-08
2	1	0	0	1	411.039	0.0247348	0.0246594	0.00324358	2	-7.56014e-06	7.99849e-08
2	1	0	0	1	411.066	0.0381297	0.0380483	0.00318037	2	-7.47318e-06	1.21007e-07
2	1	0	1	1	411.092	0.0514246	0.0513552	0.00313003	2	-7.38835e-06	1.60743e-07
2	1	0	0	1	411.119	0.0647195	0.0646491	0.00308999	2	-7.3047e-06	1.99765e-07
2	1	0	1	1	411.145	0.0780478	0.0779905	0.00307074	2	-7.22191e-06	2.39489e-07
2	1	0	1	1	411.172	0.0914427	0.0913717	0.00303797	2	-7.13917e-06	2.77585e-07
2	0	0	0	1	411.193	0.0980735	0.0979283	0.00200997	2	-7.07834e-06	1.96833e-07
2	0	0	1	1	411.22	0.0847785	0.0846152	0.00117561	2	-7.04026e-06	9.94742e-08
2	0	0	0	1	411.246	0.0714503	0.0712902	0.000824463	2	-7.01496e-06	5.87761e-08
2	0	0	0	1	411.273	0.0580554	0.0579296	0.000563825	2	-6.99748e-06	3.26622e-08
2	0	0	1	1	411.3	0.0447605	0.0445971	0.00033466	2	-6.9866e-06	1.49248e-08
2	0	0	0	1	411.326	0.0314655	0.0312957	0.000144269	2	-6.98122e-06	4.515e-09
2	0	0	0	1	411.353	0.0180707	0.0179033	-3.2798e-05	2	-6.98075e-06	5.87193e-10
2	0	0	1	1	411.38	0.00477573	0.00461088	-0.000198602	2	-6.98486e-06	9.1573e-10
2	0	0	0	1	411.406	-0.0085192	-0.00873607	-0.000358434	2	-6.99334e-06	3.1313e-09
2	0	0	1	1	411.433	-0.0218475	-0.022042	-0.00050822	2	-7.0059e-06	1.12022e-08
2	0	0	1	1	411.46	-0.0352423	-0.0354532	-0.000662069	2	-7.02258e-06	2.34725e-08
2	0	0	0	1	411.486	-0.0485373	-0.0487598	-0.000812088	2	-7.04316e-06	3.95972e-08
2	0	0	1	1	411.513	-0.0618322	-0.0620529	-0.000965509	2	-7.06776e-06	5.99127e-08
2	0	0	1	1	411.54	-0.0752271	-0.0754504	-0.00113289	2	-7.09679e-06	8.54769e-08
2	0	0	0	1	411.566	-0.088522	-0.0887215	-0.0013168	2	-7.13027e-06	1.16829e-07
2	0	0	1	1	411.593	-0.10185	-0.102049	-0.00153882	2	-7.16914e-06	1.57035e-07
2	0	0	0	1	411.62	-0.115145	-0.115319	-0.00181289	2	-7.2145e-06	2.09061e-07
2	0	0	0	1	411.646	-0.12854	-0.128745	-0.00217099	2	-7.26865e-06	2.79504e-07
2	0	0	1	1	411.673	-0.141835	-0.142048	-0.00263069	2	-7.33326e-06	3.73683e-07
2	0	0	0	1	411.7	-0.15513	-0.155336	-0.00321117	2	-7.4117e-06	4.98811e-07
2	0	0	0	1	411.726	-0.168525	-0.168768	-0.00392796	2	-7.50813e-06	6.62912e-07
2	0	0	1	1	411.753	-0.18182	-0.182066	-0.00475502	2	-7.62433e-06	8.65727e-07
2	0	0	0	1	411.78	-0.195148	-0.195365	-0.0056509	2	-7.76363e-06	1.10399e-06
2	0	0	1	1	411.806	-0.208443	-0.208659	-0.00655497	2	-7.92698e-06	1.36775e-06
2	0	0	1	1	411.833	-0.221838	-0.222076	-0.00737693	2	-8.11493e-06	1.63824e-06
2	0	0	0	1	411.86	-0.235133	-0.235369	-0.00794939	2	-8.32033e-06	1.87104e-06
2	0	0	1	1	411.886	-0.248428	-0.248662	-0.00825807	2	-8.53759e-06	2.05347e-06
2	0	0	1	1	411.913	-0.261823	-0.262063	-0.00827917	2	-8.76072e-06	2.16966e-06
2	0	0	0	1	411.94	-0.275151	-0.275377	-0.00810657	2	-8.97981e-06	2.23237e-06
2	0	0	1	1	411.966	-0.288446	-0.288675	-0.00777822	2	-9.19194e-06	2.24538e-06
2	0	0	0	1	411.993	-0.301741	-0.301988	-0.00742997	2	-9.39509e-06	2.24376e-06
2	0	0	0	1	412.02	-0.315136	-0.315397	-0.00710265	2	-9.59061e-06	2.24015e-06
2	0	0	1	1	412.046	-0.328431	-0.328672	-0.00683874	2	-9.77666e-06	2.2477e-06
2	0	0	0	1	412.073	-0.341726	-0.342015	-0.00662772	2	-9.95646e-06	2.26678e-06
2	0	0	0	1	412.1	-0.35512	-0.355398	-0.00645324	2	-1.01325e-05	2.29347e-06
2	0	0	1	1	412.126	-0.368449	-0.368704	-0.0063367	2	-1.03036e-05	2.33637e-06
2	0	0	0	1	412.153	-0.381744	-0.382025	-0.00627061	2	-1.04722e-05	2.39553e-06
2	0	0	1	1	412.179	-0.395039	-0.39532	-0.00620866	2	-1.06391e-05	2.45441e-06
2	0	0	1	1	412.206	-0.408433	-0.408709	-0.00619008	2	-1.08062e-05	2.52994e-06
2	0	0	0	1	412.233	-0.421728	-0.422008	-0.0061857	2	-1.09718e-05	2.61041e-06
2	0	0	1	1	412.259	-0.435023	-0.435285	-0.00619753	2	-1.11374e-05	2.69769e-06
2	0	0	1	1	412.286	-0.448385	-0.448628	-0.00623128	2	-1.13042e-05	2.79553e-06
2	0	0	0	1	412.313	-0.461746	-0.461999	-0.0062738	2	-1.1472e-05	2.89849e-06
2	0	0	1	1	412.339	-0.475041	-0.475291	-0.00632837	2	-1.16405e-05	3.00782e-06
2	0	0	0	1	412.366	-0.488336	-0.488585	-0.00638969	2	-1.18107e-05	3.12191e-06
2	0	0	0	1	412.393	-0.501731	-0.501998	-0.00648567	2	-1.19842e-05	3.25579e-06
2	0	0	1	1	412.419	-0.515026	-0.515279	-0.00659002	2	-1.21591e-05	3.3957e-06
2	0	0	0	1	412.446	-0.528321	-0.528578	-0.00671427	2	-1.23371e-05	3.54902e-06
2	0	0	1	1	412.473	-0.541649	-0.54189	-0.00687858	2	-1.25188e-05	3.72744e-06
2	0	0	1	1	412.499	-0.555044	-0.555319	-0.00705839	2	-1.27064e-05	3.91966e-06
2	0	0	0	1	412.526	-0.568339	-0.568617	-0.00726775	2	-1.28979e-05	4.13256e-06
2	0	0	1	1	412.553	-0.581634	-0.581897	-0.00752395	2	-1.30957e-05	4.37816e-06
2	0	0	1	1	412.579	-0.595029	-0.595301	-0.0078349	2	-1.33024e-05	4.66412e-06
2	0	0	0	1	412.589	-0.599827	-0.60005	-0.00792919	2	-1.33784e-05	4.75791e-06