File: TAP_Report/Data/MB_SHU/100 uM MB 10mM PB Second ITO_01_CV_C01_2.mpt
EC-Lab ASCII FILE
Nb header lines : 53

Cyclic Voltammetry

Run on channel : 1 (SN 0696)
User :
Electrode connection : standard
Ewe ctrl range : min = -10.00 V, max = 10.00 V
Ewe,I filtering : 50 kHz
Channel : Grounded
Acquisition started on : 05/17/2017 12:14:48
Saved on :
	File : 100 uM MB 10mM PB Second ITO_01_CV_C01.mpr
	Directory : \\userfs\st659\w2k\EC-Lab\Data\ITO Characterisation 17-5-17\
	Host : 144.32.136.43
Device : SP-300 (SN 0182)
Address : USB
EC-Lab for windows v10.44 (software)
Internet server v10.44 (firmware)
Command interpretor v10.44 (firmware)
Electrode material :
Initial state :
Electrolyte :
Comments :
Cable : standard
Electrode surface area : 0.001 cm²
Characteristic mass : 0.001 g
Equivalent Weight : 0.000 g/eq.
Density : 0.000 g/cm3
Ei (V)              0.000
vs.                 Eoc
dE/dt               20.000
dE/dt unit          mV/s
E1 (V)              0.100
vs.                 Ref
Step percent        50
N                   10
E range min (V)     -10.000
E range max (V)     10.000
I Range             Auto
I Range min         Unset
I Range max         Unset
I Range init        Unset
Bandwidth           8
E2 (V)              -0.600
vs.                 Ref
nc cycles           2
Reverse Scan        1
Ef (V)              0.000
vs.                 Eoc

mode	ox/red	error	control changes	counter inc.	time/s	control/V	Ewe/V	<I>/mA	cycle number	(Q-Qo)/C	P/W
2	1	0	1	1	51.2478	-0.599827	-0.600062	-0.00388903	2	-8.20572e-05	2.33366e-06
2	1	0	0	1	51.8393	-0.587998	-0.588205	-0.00350508	2	-8.42163e-05	2.06171e-06
2	1	0	0	1	52.5057	-0.57467	-0.574875	-0.00322166	2	-8.64403e-05	1.85205e-06
2	1	0	0	1	53.1721	-0.561342	-0.561532	-0.00299871	2	-8.84978e-05	1.68387e-06
2	1	0	0	1	53.8386	-0.548012	-0.548202	-0.00281524	2	-9.04225e-05	1.54332e-06
2	1	0	0	1	54.505	-0.534684	-0.534886	-0.00265116	2	-9.22305e-05	1.41807e-06
2	1	0	0	1	55.1714	-0.521356	-0.521568	-0.00250929	2	-9.39369e-05	1.30877e-06
2	1	0	0	1	55.8378	-0.508028	-0.508244	-0.00238352	2	-9.55548e-05	1.21141e-06
2	1	0	0	1	56.5042	-0.4947	-0.494897	-0.0022679	2	-9.70924e-05	1.12238e-06
2	1	0	0	1	57.1706	-0.481372	-0.481593	-0.00216395	2	-9.85572e-05	1.04214e-06
2	1	0	0	1	57.837	-0.468044	-0.46824	-0.00207007	2	-9.99562e-05	9.6929e-07
2	1	0	0	1	58.5034	-0.454716	-0.454897	-0.00198082	2	-0.000101294	9.01068e-07
2	1	0	0	1	59.1698	-0.441388	-0.441581	-0.0018993	2	-0.000102575	8.38694e-07
2	1	0	0	1	59.8362	-0.42806	-0.428265	-0.0018231	2	-0.000103803	7.80771e-07
2	1	0	0	1	60.5026	-0.414732	-0.414948	-0.00175164	2	-0.000104983	7.26841e-07
2	1	0	1	1	61.1691	-0.401402	-0.401633	-0.00168836	2	-0.000106117	6.78099e-07
2	1	0	1	1	61.8355	-0.388074	-0.38829	-0.00162797	2	-0.000107211	6.32125e-07
2	1	0	1	1	62.5019	-0.374746	-0.374949	-0.0015709	2	-0.000108265	5.89009e-07
2	1	0	1	1	63.1683	-0.361418	-0.361641	-0.00152032	2	-0.000109283	5.49812e-07
2	1	0	1	1	63.8347	-0.34809	-0.348302	-0.00147017	2	-0.000110268	5.12063e-07
2	1	0	1	1	64.5012	-0.33476	-0.334948	-0.0014233	2	-0.000111222	4.76731e-07
2	1	0	1	1	65.1676	-0.321432	-0.321626	-0.00137641	2	-0.000112143	4.4269e-07
2	1	0	1	1	65.834	-0.308104	-0.308302	-0.00133002	2	-0.000113033	4.10047e-07
2	1	0	1	1	66.5004	-0.294776	-0.294944	-0.00128336	2	-0.000113893	3.78518e-07
2	1	0	1	1	67.1668	-0.281448	-0.281616	-0.00123221	2	-0.000114719	3.47011e-07
2	1	0	1	1	67.8332	-0.26812	-0.26831	-0.00117512	2	-0.000115509	3.15295e-07
2	1	0	1	1	68.4996	-0.254792	-0.255003	-0.00111249	2	-0.00011626	2.83688e-07
2	1	0	1	1	69.166	-0.241464	-0.241659	-0.0010345	2	-0.000116963	2.49996e-07
2	1	0	1	1	69.8324	-0.228136	-0.228346	-0.000931564	2	-0.000117605	2.12719e-07
2	1	0	1	1	70.4988	-0.214808	-0.215006	-0.00077822	2	-0.000118163	1.67322e-07
2	1	0	1	1	71.1652	-0.20148	-0.201667	-0.000539451	2	-0.00011859	1.0879e-07
2	1	0	0	1	71.865	-0.187484	-0.187688	-0.000187258	2	-0.000118828	3.51461e-08
2	1	0	0	1	72.5314	-0.174156	-0.174356	0.000144137	2	-0.000118818	2.51311e-08
2	1	0	0	1	73.1978	-0.160828	-0.161006	0.000306047	2	-0.00011864	4.92753e-08
2	1	0	0	1	73.8642	-0.1475	-0.147669	0.000290806	2	-0.000118418	4.29432e-08
2	1	0	0	1	74.5306	-0.134172	-0.134333	0.00020983	2	-0.000118234	2.81872e-08
2	1	0	0	1	75.197	-0.120844	-0.121005	0.000128842	2	-0.000118108	1.55906e-08
2	1	0	0	1	75.8634	-0.107516	-0.107654	6.72737e-05	2	-0.00011803	7.24227e-09
2	1	0	1	1	76.5299	-0.0941861	-0.0943602	2.20148e-05	2	-0.000117988	2.07732e-09
2	1	0	1	1	77.1963	-0.0808583	-0.0810426	-1.11145e-05	2	-0.000117973	9.00751e-10
2	1	0	1	1	77.8627	-0.06753	-0.0677062	-3.706e-05	2	-0.000117978	2.50919e-09
2	1	0	1	1	78.5291	-0.0542022	-0.054396	-5.79981e-05	2	-0.000118	3.15486e-09
2	1	0	1	1	79.1956	-0.0408722	-0.0410684	-7.53256e-05	2	-0.000118034	3.0935e-09
2	1	0	1	1	79.862	-0.0275439	-0.027699	-8.81302e-05	2	-0.000118078	2.44111e-09
2	1	0	1	1	80.5284	-0.0142161	-0.0143957	-9.8688e-05	2	-0.00011813	1.42069e-09
2	1	0	1	1	81.1948	-0.000875546	-0.00106513	-0.000105255	2	-0.000118188	1.1211e-10
2	1	0	1	1	81.8612	0.0124399	0.0122966	-0.000109294	2	-0.00011825	1.34395e-09
2	1	0	1	1	82.5276	0.0257677	0.0256148	-0.000111383	2	-0.000118314	2.85304e-09
2	1	0	1	1	83.194	0.039096	0.0389687	-0.000111261	2	-0.000118378	4.33571e-09
2	1	0	1	1	83.8604	0.0524238	0.0523229	-0.000109074	2	-0.000118442	5.70706e-09
2	1	0	1	1	84.5268	0.0657516	0.0656403	-0.000105546	2	-0.000118504	6.92808e-09
2	1	0	1	1	85.1932	0.0790798	0.0789516	-0.000100322	2	-0.000118563	7.9206e-09
2	1	0	1	1	85.8596	0.0924076	0.0922582	-9.37912e-05	2	-0.000118618	8.65301e-09
2	0	0	0	1	86.3266	0.098073	0.0979388	-0.000129023	2	-0.00011866	1.26364e-08
2	0	0	0	1	86.993	0.0847452	0.0846203	-0.000249726	2	-0.000118801	2.11319e-08
2	0	0	0	1	87.6594	0.071417	0.0712795	-0.000330893	2	-0.000119005	2.35859e-08
2	0	0	0	1	88.3258	0.0580892	0.0579826	-0.000395491	2	-0.000119258	2.29316e-08
2	0	0	0	1	88.9922	0.0447609	0.0446251	-0.000450842	2	-0.00011955	2.01189e-08
2	0	0	0	1	89.6586	0.0314331	0.0312794	-0.000498838	2	-0.000119877	1.56034e-08
2	0	0	0	1	90.325	0.0181053	0.0179471	-0.000541246	2	-0.000120234	9.7138e-09
2	0	0	0	1	90.9914	0.00477706	0.00461396	-0.000580092	2	-0.000120618	2.67652e-09
2	0	0	1	1	91.6579	-0.00855297	-0.00873882	-0.000616265	2	-0.000121026	5.38543e-09
2	0	0	1	1	92.3243	-0.0218808	-0.0220529	-0.000649548	2	-0.000121459	1.43244e-08
2	0	0	1	1	92.9907	-0.035209	-0.0353814	-0.000681529	2	-0.000121913	2.41134e-08
2	0	0	1	1	93.6571	-0.0485368	-0.048716	-0.000711566	2	-0.000122388	3.46647e-08
2	0	0	1	1	94.3236	-0.0618669	-0.0620757	-0.000741867	2	-0.000122883	4.60519e-08
2	0	0	1	1	94.99	-0.0751951	-0.0753892	-0.000772104	2	-0.000123398	5.82083e-08
2	0	0	1	1	95.6564	-0.0885229	-0.0887116	-0.000802982	2	-0.000123934	7.12338e-08
2	0	0	1	1	96.3228	-0.101851	-0.102021	-0.000838732	2	-0.000124493	8.55683e-08
2	0	0	1	1	96.9892	-0.115179	-0.115339	-0.000882189	2	-0.000125079	1.01751e-07
2	0	0	0	1	97.6889	-0.129173	-0.129333	-0.000943592	2	-0.000125734	1.22037e-07
2	0	0	0	1	98.3553	-0.142501	-0.142663	-0.00103624	2	-0.000126407	1.47834e-07
2	0	0	0	1	99.0218	-0.155831	-0.155994	-0.0011909	2	-0.000127162	1.85773e-07
2	0	0	0	1	99.6882	-0.169159	-0.169344	-0.00144461	2	-0.000128054	2.44636e-07
2	0	0	0	1	100.355	-0.182487	-0.182682	-0.00179845	2	-0.000129151	3.28546e-07
2	0	0	0	1	101.021	-0.195815	-0.195999	-0.00213056	2	-0.000130488	4.17587e-07
2	0	0	0	1	101.687	-0.209143	-0.209316	-0.00227638	2	-0.000131989	4.76483e-07
2	0	0	0	1	102.354	-0.222471	-0.222683	-0.00225473	2	-0.000133524	5.0209e-07
2	0	0	0	1	103.02	-0.235799	-0.235986	-0.00218152	2	-0.000135021	5.14808e-07
2	0	0	0	1	103.687	-0.249127	-0.249314	-0.00211756	2	-0.00013647	5.27936e-07
2	0	0	0	1	104.353	-0.262455	-0.262626	-0.00207072	2	-0.000137881	5.43824e-07
2	0	0	0	1	105.019	-0.275783	-0.27596	-0.00203807	2	-0.000139265	5.62427e-07
2	0	0	0	1	105.686	-0.289111	-0.289288	-0.00201992	2	-0.000140632	5.8434e-07
2	0	0	1	1	106.352	-0.302441	-0.302631	-0.002012	2	-0.000141989	6.08894e-07
2	0	0	1	1	107.019	-0.315769	-0.315971	-0.00201214	2	-0.000143344	6.35779e-07
2	0	0	1	1	107.685	-0.329097	-0.329292	-0.00202047	2	-0.000144701	6.65326e-07
2	0	0	1	1	108.351	-0.342425	-0.342653	-0.00203491	2	-0.000146066	6.97269e-07
2	0	0	1	1	109.018	-0.355753	-0.355972	-0.00205628	2	-0.000147443	7.31976e-07
2	0	0	1	1	109.684	-0.369083	-0.369294	-0.00208461	2	-0.000148837	7.69833e-07
2	0	0	1	1	110.351	-0.382411	-0.382644	-0.00211908	2	-0.000150251	8.10853e-07
2	0	0	1	1	111.017	-0.395739	-0.395961	-0.00216106	2	-0.000151691	8.55695e-07
2	0	0	1	1	111.684	-0.409067	-0.40927	-0.00221032	2	-0.000153161	9.04619e-07
2	0	0	1	1	112.35	-0.422395	-0.422624	-0.00226594	2	-0.000154667	9.57641e-07
2	0	0	1	1	113.016	-0.435723	-0.43591	-0.00232975	2	-0.000156212	1.01556e-06
2	0	0	1	1	113.683	-0.449051	-0.449243	-0.00240694	2	-0.000157804	1.0813e-06
2	0	0	1	1	114.349	-0.462379	-0.462563	-0.00249125	2	-0.00015945	1.15236e-06
2	0	0	1	1	115.016	-0.475707	-0.475901	-0.00258328	2	-0.000161155	1.22938e-06
2	0	0	1	1	115.682	-0.489035	-0.48925	-0.00267946	2	-0.000162923	1.31093e-06
2	0	0	1	1	116.348	-0.502363	-0.502574	-0.00278295	2	-0.000164758	1.39864e-06
2	0	0	0	1	117.015	-0.515693	-0.515917	-0.00289295	2	-0.000166664	1.49252e-06
2	0	0	0	1	117.681	-0.529021	-0.52924	-0.00301596	2	-0.000168648	1.59617e-06
2	0	0	0	1	118.348	-0.542349	-0.542557	-0.00314523	2	-0.000170715	1.70647e-06
2	0	0	0	1	119.014	-0.555677	-0.555885	-0.00328284	2	-0.000172872	1.82488e-06
2	0	0	0	1	119.68	-0.569005	-0.569215	-0.00342995	2	-0.000175124	1.95238e-06
2	0	0	0	1	120.347	-0.582335	-0.582527	-0.00358439	2	-0.000177477	2.08801e-06
2	0	0	0	1	121.013	-0.595663	-0.595865	-0.00374548	2	-0.000179935	2.2318e-06
2	0	0	0	1	121.222	-0.60016	-0.600363	-0.00395194	2	-0.000180726	2.3726e-06