File: TAP_Report/Data/MB_Suscept/6_bw_noanti_1_C01_2.mpt
EC-Lab ASCII FILE
Nb header lines : 56

Cyclic Voltammetry

Run on channel : 1 (SN 0696)
User :
Electrode connection : standard
Ewe ctrl range : min = -2.50 V, max = 2.50 V
Ewe,I filtering : 50 kHz
Safety Limits :
	Do not start on E overload
Channel : Floating
Acquisition started on : 09/12/2016 16:12:39
Saved on :
	File : 6_bw_noanti_1_C01.mpr
	Directory : \\userfs\st659\w2k\EC-Lab\Data\Meth_Blue 12-09-16\
	Host : 144.32.136.43
Device : SP-300 (SN 0182)
Address : USB
EC-Lab for windows v10.44 (software)
Internet server v10.44 (firmware)
Command interpretor v10.44 (firmware)
Electrode material :
Initial state :
Electrolyte :
Comments :
Cable : standard
Reference electrode : SCE Saturated Calomel Electrode (0.241 V)
Electrode surface area : 0.001 cm²
Characteristic mass : 0.001 g
Equivalent Weight : 0.000 g/eq.
Density : 0.000 g/cm3
Ei (V)              0.000
vs.                 Eoc
dE/dt               100.000
dE/dt unit          mV/s
E1 (V)              0.100
vs.                 Ref
Step percent        50
N                   10
E range min (V)     -2.500
E range max (V)     2.500
I Range             Auto
I Range min         Unset
I Range max         Unset
I Range init        Unset
Bandwidth           8
E2 (V)              -0.400
vs.                 Ref
nc cycles           2
Reverse Scan        1
Ef (V)              0.000
vs.                 Eoc

mode	ox/red	error	control changes	counter inc.	time/s	control/V	Ewe/V	<I>/mA	cycle number	(Q-Qo)/C	P/W
2	1	0	1	1	9.965	0.0131975	0.0136844	0.00470472	2	-3.67524e-05	6.4381e-08
2	1	0	0	1	10.0405	0.0207444	0.0212384	0.00462331	2	-3.63826e-05	9.81919e-08
2	1	0	0	1	10.1205	0.0287411	0.029212	0.00464396	2	-3.59903e-05	1.35659e-07
2	1	0	0	1	10.2005	0.0367378	0.0372218	0.00468519	2	-3.55964e-05	1.74391e-07
2	1	0	0	1	10.2805	0.0447345	0.0452255	0.004672	2	-3.52005e-05	2.11294e-07
2	1	0	0	1	10.3605	0.0527313	0.0532173	0.00472139	2	-3.48024e-05	2.5126e-07
2	1	0	0	1	10.4405	0.060728	0.0612134	0.00476847	2	-3.44011e-05	2.91894e-07
2	1	0	1	1	10.5203	0.0687247	0.0692109	0.00484607	2	-3.39968e-05	3.35401e-07
2	1	0	1	1	10.6003	0.0767214	0.0772069	0.00489143	2	-3.35877e-05	3.77653e-07
2	1	0	1	1	10.6803	0.0847181	0.0851888	0.004944	2	-3.31742e-05	4.21173e-07
2	1	0	1	1	10.7603	0.0927149	0.0932126	0.0050246	2	-3.27549e-05	4.68356e-07
2	0	0	0	1	10.8332	0.0999619	0.100424	0.00479778	2	-3.23678e-05	4.81812e-07
2	0	0	0	1	10.9397	0.0893163	0.0897177	0.000691479	2	-3.21967e-05	6.20379e-08
2	0	0	0	1	11.0197	0.0813195	0.0817199	9.73344e-05	2	-3.21674e-05	7.95416e-09
2	0	0	0	1	11.0997	0.0733228	0.0737381	-0.00026313	2	-3.21755e-05	1.94027e-08
2	0	0	0	1	11.1797	0.0653261	0.0657232	-0.000584917	2	-3.22103e-05	3.84426e-08
2	0	0	1	1	11.2595	0.0573294	0.0577273	-0.000787159	2	-3.22659e-05	4.54406e-08
2	0	0	1	1	11.3395	0.0493327	0.0497574	-0.000995862	2	-3.2338e-05	4.95515e-08
2	0	0	1	1	11.4195	0.0413359	0.0417505	-0.00114871	2	-3.24241e-05	4.79593e-08
2	0	0	1	1	11.4995	0.0333392	0.0337337	-0.00129624	2	-3.25224e-05	4.37271e-08
2	0	0	1	1	11.5795	0.0253425	0.0257491	-0.00139826	2	-3.26309e-05	3.6004e-08
2	0	0	1	1	11.6595	0.0173458	0.0177605	-0.00152571	2	-3.27491e-05	2.70973e-08
2	0	0	0	1	11.7393	0.00934906	0.00976041	-0.00164068	2	-3.28763e-05	1.60137e-08
2	0	0	0	1	11.8193	0.00135234	0.00175462	-0.00174439	2	-3.30116e-05	3.06074e-09
2	0	0	0	1	11.8993	-0.00664438	-0.00623125	-0.00181355	2	-3.31544e-05	1.13007e-08
2	0	0	0	1	11.9793	-0.0146411	-0.014254	-0.00192003	2	-3.33049e-05	2.73681e-08
2	0	0	0	1	12.0593	-0.0226378	-0.022253	-0.00200082	2	-3.34622e-05	4.45242e-08
2	0	0	0	1	12.1393	-0.0306345	-0.0302338	-0.00208163	2	-3.36262e-05	6.29356e-08
2	0	0	1	1	12.2191	-0.0386313	-0.038232	-0.00216755	2	-3.37971e-05	8.28695e-08
2	0	0	1	1	12.2991	-0.046628	-0.0462007	-0.0022589	2	-3.39749e-05	1.04363e-07
2	0	0	1	1	12.3791	-0.0546247	-0.0542224	-0.0023385	2	-3.41594e-05	1.26799e-07
2	0	0	1	1	12.4591	-0.0626214	-0.0622246	-0.00245251	2	-3.43508e-05	1.52606e-07
2	0	0	1	1	12.5391	-0.0706182	-0.0702219	-0.00250237	2	-3.45491e-05	1.75721e-07
2	0	0	1	1	12.6191	-0.0786149	-0.0782145	-0.0026013	2	-3.47546e-05	2.03459e-07
2	0	0	0	1	12.6989	-0.0866116	-0.0861991	-0.0027175	2	-3.49678e-05	2.34246e-07
2	0	0	0	1	12.7789	-0.0946083	-0.094231	-0.00281422	2	-3.51901e-05	2.65187e-07
2	0	0	0	1	12.8589	-0.102605	-0.102224	-0.0029471	2	-3.5422e-05	3.01265e-07
2	0	0	0	1	12.9389	-0.110602	-0.110208	-0.00312659	2	-3.56651e-05	3.44577e-07
2	0	0	0	1	13.0189	-0.118598	-0.118206	-0.00330904	2	-3.59225e-05	3.91149e-07
2	0	0	0	1	13.0989	-0.126595	-0.126211	-0.00356217	2	-3.61978e-05	4.49586e-07
2	0	0	1	1	13.1787	-0.134592	-0.134194	-0.00391732	2	-3.64967e-05	5.25683e-07
2	0	0	1	1	13.2587	-0.142589	-0.142204	-0.00438616	2	-3.68286e-05	6.23729e-07
2	0	0	1	1	13.3387	-0.150585	-0.150194	-0.00501685	2	-3.7204e-05	7.53501e-07
2	0	0	1	1	13.4187	-0.158582	-0.158199	-0.00582428	2	-3.7637e-05	9.21397e-07
2	0	0	1	1	13.4987	-0.166579	-0.166204	-0.00685006	2	-3.81437e-05	1.13851e-06
2	0	0	1	1	13.5787	-0.174576	-0.174196	-0.00804551	2	-3.87392e-05	1.4015e-06
2	0	0	1	1	13.6586	-0.182579	-0.182209	-0.00933522	2	-3.94325e-05	1.70096e-06
2	0	0	1	1	13.7695	-0.193668	-0.193277	-0.0106886	2	-4.0553e-05	2.06585e-06
2	0	0	1	1	13.8495	-0.201664	-0.201278	-0.0117079	2	-4.14706e-05	2.35654e-06
2	0	0	1	1	13.9295	-0.209661	-0.209281	-0.0124703	2	-4.24597e-05	2.6098e-06
2	0	0	1	1	14.0095	-0.217658	-0.217294	-0.0130282	2	-4.35018e-05	2.83096e-06
2	0	0	1	1	14.0895	-0.225655	-0.225266	-0.0133957	2	-4.45795e-05	3.01759e-06
2	0	0	0	1	14.1693	-0.233651	-0.233257	-0.0136015	2	-4.56765e-05	3.17263e-06
2	0	0	0	1	14.2493	-0.241648	-0.241264	-0.0136373	2	-4.67872e-05	3.29018e-06
2	0	0	0	1	14.3293	-0.249645	-0.249259	-0.0136429	2	-4.79011e-05	3.40062e-06
2	0	0	0	1	14.4093	-0.257641	-0.257252	-0.0136643	2	-4.90135e-05	3.51515e-06
2	0	0	0	1	14.4893	-0.265638	-0.265279	-0.013567	2	-5.01215e-05	3.59904e-06
2	0	0	0	1	14.5693	-0.273635	-0.273253	-0.0135067	2	-5.12244e-05	3.69076e-06
2	0	0	1	1	14.6491	-0.281632	-0.281251	-0.0134451	2	-5.23196e-05	3.78145e-06
2	0	0	1	1	14.7291	-0.289628	-0.289219	-0.0134025	2	-5.34134e-05	3.87626e-06
2	0	0	1	1	14.8091	-0.297625	-0.297215	-0.0133581	2	-5.45051e-05	3.97024e-06
2	0	0	1	1	14.8891	-0.305622	-0.305236	-0.0134028	2	-5.55966e-05	4.09104e-06
2	0	0	1	1	14.9691	-0.313619	-0.313237	-0.0134355	2	-5.66905e-05	4.20849e-06
2	0	0	1	1	15.0491	-0.321615	-0.321243	-0.0135133	2	-5.77898e-05	4.34106e-06
2	0	0	0	1	15.1289	-0.329612	-0.329238	-0.0136579	2	-5.8894e-05	4.49669e-06
2	0	0	0	1	15.2089	-0.337609	-0.337212	-0.0137759	2	-6.00113e-05	4.64541e-06
2	0	0	0	1	15.2889	-0.345605	-0.34523	-0.0139685	2	-6.1142e-05	4.82236e-06
2	0	0	0	1	15.3689	-0.353602	-0.353204	-0.0141839	2	-6.22888e-05	5.00982e-06
2	0	0	0	1	15.4489	-0.361599	-0.361196	-0.0144717	2	-6.34547e-05	5.22713e-06
2	0	0	0	1	15.5289	-0.369596	-0.369203	-0.0147343	2	-6.46422e-05	5.43994e-06
2	0	0	0	1	15.6088	-0.377597	-0.377203	-0.0150665	2	-6.5853e-05	5.68314e-06
2	0	0	1	1	15.6887	-0.385589	-0.385196	-0.0154427	2	-6.70914e-05	5.94845e-06
2	0	0	1	1	15.7687	-0.393586	-0.393196	-0.0158113	2	-6.83611e-05	6.21696e-06
2	1	0	1	0	15.8383	-0.399483	-0.399048	-0.0138035	2	-6.94779e-05	5.50826e-06
2	1	0	1	0	15.9183	-0.391487	-0.391038	-0.011095	2	-7.04242e-05	4.33856e-06
2	1	0	1	0	15.9983	-0.38349	-0.383051	-0.00980718	2	-7.12387e-05	3.75665e-06
2	1	0	0	0	16.0781	-0.375493	-0.37505	-0.00884914	2	-7.19639e-05	3.31887e-06
2	1	0	0	0	16.1581	-0.367496	-0.367045	-0.00800326	2	-7.2619e-05	2.93756e-06
2	1	0	0	0	16.2381	-0.3595	-0.359054	-0.00731167	2	-7.32115e-05	2.62528e-06
2	1	0	0	0	16.3181	-0.351503	-0.351068	-0.00666151	2	-7.37477e-05	2.33865e-06
2	1	0	0	0	16.3981	-0.343506	-0.343075	-0.00597473	2	-7.42326e-05	2.04978e-06
2	1	0	0	0	16.4781	-0.33551	-0.335069	-0.0054654	2	-7.46704e-05	1.83129e-06
2	1	0	1	0	16.5734	-0.325964	-0.325498	-0.00472273	2	-7.51386e-05	1.53724e-06
2	1	0	0	0	16.6689	-0.316417	-0.315966	-0.00400237	2	-7.5555e-05	1.26461e-06
2	1	0	0	0	16.7489	-0.308421	-0.307982	-0.00355647	2	-7.58576e-05	1.09533e-06
2	1	0	0	0	16.8289	-0.300424	-0.299972	-0.00311349	2	-7.61242e-05	9.3396e-07
2	1	0	0	0	16.9089	-0.292427	-0.29198	-0.00268968	2	-7.6356e-05	7.85333e-07
2	1	0	0	0	16.9889	-0.284431	-0.283997	-0.00225885	2	-7.65541e-05	6.41507e-07
2	1	0	1	0	17.0687	-0.276434	-0.275987	-0.00184862	2	-7.67176e-05	5.10196e-07
2	1	0	1	0	17.1487	-0.268437	-0.267983	-0.00140875	2	-7.68475e-05	3.77521e-07
2	1	0	1	0	17.2287	-0.26044	-0.259981	-0.000937664	2	-7.69411e-05	2.43775e-07
2	1	0	1	0	17.3087	-0.252444	-0.251996	-0.000424752	2	-7.69956e-05	1.07036e-07
2	1	0	1	0	17.3887	-0.244447	-0.244005	0.000159904	2	-7.70063e-05	3.90174e-08
2	1	0	1	0	17.4687	-0.23645	-0.235985	0.000851836	2	-7.69659e-05	2.01021e-07
2	1	0	0	0	17.5485	-0.228453	-0.228008	0.00166887	2	-7.68654e-05	3.80516e-07
2	1	0	0	0	17.6285	-0.220457	-0.220006	0.00267832	2	-7.66922e-05	5.89246e-07
2	1	0	0	0	17.7085	-0.21246	-0.211989	0.00383805	2	-7.64321e-05	8.13626e-07
2	1	0	0	0	17.7885	-0.204463	-0.204002	0.00516443	2	-7.60721e-05	1.05355e-06
2	1	0	0	0	17.8685	-0.196467	-0.195987	0.00656643	2	-7.56021e-05	1.28693e-06
2	1	0	0	0	17.9485	-0.18847	-0.187971	0.00787336	2	-7.50227e-05	1.47997e-06
2	1	0	1	0	18.0283	-0.180473	-0.179951	0.00895264	2	-7.43482e-05	1.61104e-06
2	1	0	1	0	18.1083	-0.172476	-0.171964	0.00965362	2	-7.36011e-05	1.66008e-06
2	1	0	1	0	18.1883	-0.16448	-0.163953	0.00990663	2	-7.28165e-05	1.62423e-06
2	1	0	1	0	18.2683	-0.156483	-0.155972	0.00975065	2	-7.20278e-05	1.52083e-06
2	1	0	1	0	18.3483	-0.148486	-0.147976	0.00937015	2	-7.12612e-05	1.38656e-06
2	1	0	1	0	18.4283	-0.14049	-0.139975	0.00881739	2	-7.05329e-05	1.23421e-06
2	1	0	0	0	18.5081	-0.132493	-0.131974	0.00825222	2	-6.98509e-05	1.08908e-06
2	1	0	0	0	18.5881	-0.124496	-0.123995	0.00770147	2	-6.92126e-05	9.54948e-07
2	1	0	0	0	18.6681	-0.116499	-0.116	0.00721483	2	-6.86156e-05	8.36921e-07
2	1	0	0	0	18.7481	-0.108503	-0.107978	0.00681418	2	-6.80546e-05	7.35779e-07
2	1	0	0	0	18.8281	-0.100506	-0.0999904	0.00645324	2	-6.75243e-05	6.45261e-07
2	1	0	0	0	18.9081	-0.0925092	-0.0919886	0.00616525	2	-6.70196e-05	5.67133e-07
2	1	0	0	0	18.988	-0.0845056	-0.0839904	0.00595169	2	-6.65363e-05	4.99885e-07
2	1	0	1	0	19.0679	-0.0765157	-0.076005	0.00572927	2	-6.60705e-05	4.35453e-07
2	1	0	1	0	19.1479	-0.068519	-0.0680138	0.00557657	2	-6.56186e-05	3.79284e-07
2	1	0	1	0	19.2279	-0.0605223	-0.0600055	0.00545358	2	-6.51779e-05	3.27245e-07
2	1	0	1	0	19.3079	-0.0525256	-0.0520132	0.00534275	2	-6.47469e-05	2.77894e-07
2	1	0	1	0	19.3879	-0.0445289	-0.0440195	0.00523486	2	-6.43233e-05	2.30436e-07
2	1	0	1	0	19.4679	-0.0365321	-0.0360322	0.0051891	2	-6.39056e-05	1.86975e-07
2	1	0	0	0	19.5477	-0.0285354	-0.0280556	0.00513861	2	-6.34932e-05	1.44167e-07
2	1	0	0	0	19.6277	-0.0205387	-0.020032	0.00509811	2	-6.30835e-05	1.02125e-07
2	1	0	0	0	19.7077	-0.012542	-0.0120578	0.0050633	2	-6.26765e-05	6.10523e-08
2	1	0	0	0	19.7877	-0.00454524	-0.0040376	0.00506453	2	-6.22707e-05	2.04485e-08
2	1	0	0	0	19.8677	0.00345148	0.00394403	0.00506075	2	-6.18656e-05	1.99597e-08
2	1	0	0	0	19.9477	0.0114482	0.0119553	0.00504924	2	-6.14608e-05	6.03654e-08
2	1	0	1	0	19.9635	0.0130475	0.0135565	0.00509993	2	-6.13805e-05	6.91374e-08