File: TAP_Report/Data/MB_Suscept/6_bw_anti_1_C01_2.mpt
EC-Lab ASCII FILE
Nb header lines : 56

Cyclic Voltammetry

Run on channel : 1 (SN 0696)
User :
Electrode connection : standard
Ewe ctrl range : min = -2.50 V, max = 2.50 V
Ewe,I filtering : 50 kHz
Safety Limits :
	Do not start on E overload
Channel : Floating
Acquisition started on : 09/12/2016 16:05:34
Saved on :
	File : 6_bw_anti_1_C01.mpr
	Directory : \\userfs\st659\w2k\EC-Lab\Data\Meth_Blue 12-09-16\
	Host : 144.32.136.43
Device : SP-300 (SN 0182)
Address : USB
EC-Lab for windows v10.44 (software)
Internet server v10.44 (firmware)
Command interpretor v10.44 (firmware)
Electrode material :
Initial state :
Electrolyte :
Comments :
Cable : standard
Reference electrode : SCE Saturated Calomel Electrode (0.241 V)
Electrode surface area : 0.001 cm²
Characteristic mass : 0.001 g
Equivalent Weight : 0.000 g/eq.
Density : 0.000 g/cm3
Ei (V)              0.000
vs.                 Eoc
dE/dt               100.000
dE/dt unit          mV/s
E1 (V)              0.100
vs.                 Ref
Step percent        50
N                   10
E range min (V)     -2.500
E range max (V)     2.500
I Range             Auto
I Range min         Unset
I Range max         Unset
I Range init        Unset
Bandwidth           8
E2 (V)              -0.400
vs.                 Ref
nc cycles           2
Reverse Scan        1
Ef (V)              0.000
vs.                 Eoc

mode	ox/red	error	control changes	counter inc.	time/s	control/V	Ewe/V	<I>/mA	cycle number	(Q-Qo)/C	P/W
2	1	0	0	1	9.9648	0.0243352	0.0247898	0.00490023	2	-5.19991e-05	1.21476e-07
2	1	0	1	1	10.0403	0.0318821	0.0323214	0.00490503	2	-5.16292e-05	1.58537e-07
2	1	0	1	1	10.1203	0.0398788	0.0403145	0.00496708	2	-5.12338e-05	2.00245e-07
2	1	0	1	1	10.2003	0.0478756	0.0483023	0.00500033	2	-5.08345e-05	2.41527e-07
2	1	0	1	1	10.2803	0.0558723	0.0563047	0.00506761	2	-5.0431e-05	2.8533e-07
2	1	0	1	1	10.3603	0.063869	0.0642967	0.00511378	2	-5.00229e-05	3.28799e-07
2	1	0	1	1	10.4403	0.0718657	0.0722953	0.00518497	2	-4.96096e-05	3.74848e-07
2	1	0	0	1	10.5201	0.0798624	0.0802886	0.00526056	2	-4.91914e-05	4.22363e-07
2	1	0	0	1	10.6001	0.0878592	0.0882916	0.00534125	2	-4.87662e-05	4.71587e-07
2	1	0	0	1	10.6801	0.0958559	0.0962845	0.00544206	2	-4.8334e-05	5.23986e-07
2	0	0	1	1	10.7475	0.0974552	0.0977973	0.00201968	2	-4.80394e-05	1.9752e-07
2	0	0	1	1	10.8275	0.0894585	0.0897974	0.000753605	2	-4.79381e-05	6.76718e-08
2	0	0	1	1	10.9075	0.0814618	0.0817747	0.000107231	2	-4.79065e-05	8.76876e-09
2	0	0	1	1	10.9875	0.0734651	0.0737958	-0.000323404	2	-4.7916e-05	2.38659e-08
2	0	0	0	1	11.0673	0.0654683	0.0658014	-0.000643626	2	-4.79558e-05	4.23515e-08
2	0	0	0	1	11.1473	0.0574716	0.0578063	-0.000906009	2	-4.80184e-05	5.2373e-08
2	0	0	0	1	11.2273	0.0494749	0.0498043	-0.00111342	2	-4.80996e-05	5.54532e-08
2	0	0	0	1	11.3073	0.0414782	0.041821	-0.00128303	2	-4.81963e-05	5.36577e-08
2	0	0	0	1	11.3873	0.0334815	0.0337965	-0.00145329	2	-4.83066e-05	4.9116e-08
2	0	0	0	1	11.4673	0.0254848	0.025818	-0.00157795	2	-4.84287e-05	4.07395e-08
2	0	0	1	1	11.5471	0.017488	0.0178203	-0.00171535	2	-4.85613e-05	3.05681e-08
2	0	0	1	1	11.6271	0.00949133	0.00980816	-0.00182197	2	-4.87039e-05	1.78701e-08
2	0	0	1	1	11.7071	0.00149461	0.00181169	-0.00195037	2	-4.88555e-05	3.53347e-09
2	0	0	1	1	11.7871	-0.00650211	-0.00619813	-0.00203632	2	-4.90158e-05	1.26214e-08
2	0	0	1	1	11.8671	-0.0144988	-0.0141929	-0.0021487	2	-4.91846e-05	3.04962e-08
2	0	0	1	1	11.9471	-0.0224955	-0.0221962	-0.00225204	2	-4.93613e-05	4.99867e-08
2	0	0	0	1	12.0269	-0.0304923	-0.0301846	-0.00235404	2	-4.95458e-05	7.10557e-08
2	0	0	0	1	12.1069	-0.038489	-0.0381897	-0.00245052	2	-4.97384e-05	9.35845e-08
2	0	0	0	1	12.1869	-0.0464857	-0.0461546	-0.00255103	2	-4.99388e-05	1.17742e-07
2	0	0	0	1	12.2669	-0.0544824	-0.0541581	-0.00264128	2	-5.0147e-05	1.43047e-07
2	0	0	0	1	12.3469	-0.0624791	-0.0621558	-0.0027614	2	-5.03631e-05	1.71637e-07
2	0	0	0	1	12.4269	-0.0704759	-0.070161	-0.00284207	2	-5.0587e-05	1.99403e-07
2	0	0	1	1	12.5067	-0.0784726	-0.0781473	-0.00293867	2	-5.08189e-05	2.29649e-07
2	0	0	1	1	12.5867	-0.0864693	-0.0861482	-0.00303954	2	-5.10592e-05	2.6185e-07
2	0	0	1	1	12.6667	-0.094466	-0.0941489	-0.00317215	2	-5.13085e-05	2.98654e-07
2	0	0	1	1	12.7467	-0.102463	-0.102139	-0.00328436	2	-5.15668e-05	3.35461e-07
2	0	0	1	1	12.8267	-0.110459	-0.110134	-0.00341827	2	-5.18353e-05	3.76469e-07
2	0	0	1	1	12.9067	-0.118456	-0.11813	-0.00355934	2	-5.21154e-05	4.20464e-07
2	0	0	0	1	12.9865	-0.126453	-0.126125	-0.00375328	2	-5.24085e-05	4.73383e-07
2	0	0	0	1	13.0665	-0.13445	-0.134108	-0.00398091	2	-5.27183e-05	5.33869e-07
2	0	0	0	1	13.1465	-0.142446	-0.142145	-0.00429178	2	-5.30492e-05	6.10056e-07
2	0	0	0	1	13.2265	-0.150443	-0.150138	-0.0046905	2	-5.34075e-05	7.04225e-07
2	0	0	0	1	13.3065	-0.15844	-0.158143	-0.00520162	2	-5.38023e-05	8.22601e-07
2	0	0	0	1	13.3865	-0.166437	-0.166154	-0.00590216	2	-5.42456e-05	9.80668e-07
2	0	0	1	1	13.4663	-0.174433	-0.174152	-0.00679563	2	-5.47518e-05	1.18347e-06
2	0	0	1	1	13.5463	-0.18243	-0.182142	-0.00790469	2	-5.53392e-05	1.43978e-06
2	0	0	1	1	13.6263	-0.190427	-0.190137	-0.00918832	2	-5.60222e-05	1.74704e-06
2	0	0	0	1	13.7373	-0.201522	-0.201196	-0.0107598	2	-5.71384e-05	2.16482e-06
2	0	0	0	1	13.8173	-0.209519	-0.209218	-0.012038	2	-5.80738e-05	2.51858e-06
2	0	0	0	1	13.8973	-0.217516	-0.217219	-0.0131853	2	-5.91062e-05	2.8641e-06
2	0	0	1	1	13.9771	-0.225512	-0.225222	-0.014124	2	-6.02183e-05	3.18104e-06
2	0	0	1	1	14.0571	-0.233509	-0.233216	-0.0147738	2	-6.13971e-05	3.44549e-06
2	0	0	1	1	14.1371	-0.241506	-0.2412	-0.0152628	2	-6.26234e-05	3.68139e-06
2	0	0	1	1	14.2171	-0.249502	-0.249196	-0.0156593	2	-6.38836e-05	3.90224e-06
2	0	0	1	1	14.2971	-0.257499	-0.257197	-0.0158901	2	-6.51669e-05	4.08687e-06
2	0	0	1	1	14.3771	-0.265496	-0.265174	-0.0160853	2	-6.64661e-05	4.26541e-06
2	0	0	0	1	14.4569	-0.273493	-0.273192	-0.0162219	2	-6.77756e-05	4.43169e-06
2	0	0	0	1	14.5369	-0.281489	-0.281188	-0.0163477	2	-6.90993e-05	4.59677e-06
2	0	0	0	1	14.6169	-0.289486	-0.289176	-0.0165207	2	-7.04354e-05	4.77741e-06
2	0	0	0	1	14.6969	-0.297483	-0.297185	-0.0167237	2	-7.17868e-05	4.97004e-06
2	0	0	0	1	14.7769	-0.305479	-0.305173	-0.0169525	2	-7.3157e-05	5.17346e-06
2	0	0	0	1	14.8569	-0.313476	-0.313172	-0.0173295	2	-7.45502e-05	5.4271e-06
2	0	0	1	1	14.9367	-0.321473	-0.321172	-0.0177253	2	-7.59688e-05	5.69288e-06
2	0	0	1	1	15.0167	-0.32947	-0.329175	-0.0181609	2	-7.74238e-05	5.97811e-06
2	0	0	1	1	15.0967	-0.337466	-0.337151	-0.0187002	2	-7.89174e-05	6.3048e-06
2	0	0	1	1	15.1767	-0.345463	-0.345156	-0.0192517	2	-8.04555e-05	6.64484e-06
2	0	0	1	1	15.2567	-0.35346	-0.353149	-0.0199323	2	-8.20438e-05	7.03907e-06
2	0	0	1	1	15.3367	-0.361457	-0.361155	-0.0206615	2	-8.36879e-05	7.46199e-06
2	0	0	0	1	15.4165	-0.369453	-0.369147	-0.0214759	2	-8.53893e-05	7.92777e-06
2	0	0	0	1	15.4965	-0.37745	-0.377159	-0.0223532	2	-8.71618e-05	8.43069e-06
2	0	0	0	1	15.5765	-0.385447	-0.385146	-0.0232798	2	-8.90063e-05	8.96615e-06
2	0	0	0	1	15.6565	-0.393443	-0.393141	-0.024228	2	-9.09277e-05	9.52501e-06
2	1	0	1	0	15.7279	-0.399441	-0.399085	-0.0227376	2	-9.26959e-05	9.07424e-06
2	1	0	1	0	15.8079	-0.391444	-0.391078	-0.0192641	2	-9.43256e-05	7.53377e-06
2	1	0	1	0	15.8879	-0.383447	-0.383103	-0.0172711	2	-9.57618e-05	6.61662e-06
2	1	0	1	0	15.9679	-0.375451	-0.375105	-0.0156376	2	-9.7054e-05	5.86573e-06
2	1	0	1	0	16.0479	-0.367454	-0.36709	-0.0141572	2	-9.82217e-05	5.19699e-06
2	1	0	0	0	16.1277	-0.359457	-0.359096	-0.0128111	2	-9.92759e-05	4.60042e-06
2	1	0	0	0	16.2077	-0.351461	-0.351111	-0.0116675	2	-0.000100233	4.09659e-06
2	1	0	0	0	16.2877	-0.343464	-0.343087	-0.0105489	2	-0.0001011	3.61921e-06
2	1	0	0	0	16.3677	-0.335467	-0.335101	-0.00953922	2	-0.000101882	3.1966e-06
2	1	0	0	0	16.4477	-0.32747	-0.327129	-0.00859809	2	-0.000102587	2.81268e-06
2	1	0	0	0	16.5277	-0.319474	-0.319127	-0.0077716	2	-0.00010322	2.48012e-06
2	1	0	1	0	16.6075	-0.311477	-0.311115	-0.00696822	2	-0.000103785	2.16792e-06
2	1	0	1	0	16.6875	-0.30348	-0.303096	-0.00620123	2	-0.000104288	1.87957e-06
2	1	0	1	0	16.7675	-0.295484	-0.295108	-0.00545395	2	-0.000104731	1.60951e-06
2	1	0	1	0	16.8775	-0.284488	-0.284112	-0.00426711	2	-0.000105263	1.21234e-06
2	1	0	1	0	16.9575	-0.276491	-0.276121	-0.00356874	2	-0.000105575	9.85405e-07
2	1	0	1	0	17.0374	-0.268492	-0.268114	-0.00284015	2	-0.000105832	7.61486e-07
2	1	0	0	0	17.1173	-0.260498	-0.260123	-0.00212595	2	-0.000106031	5.53008e-07
2	1	0	0	0	17.1973	-0.252501	-0.252109	-0.00133792	2	-0.000106169	3.37301e-07
2	1	0	0	0	17.2773	-0.244505	-0.244109	-0.000451248	2	-0.000106241	1.10154e-07
2	1	0	0	0	17.3573	-0.236508	-0.236111	0.00053952	2	-0.000106237	1.27386e-07
2	1	0	0	0	17.4373	-0.228511	-0.228129	0.00166466	2	-0.000106148	3.79759e-07
2	1	0	0	0	17.5173	-0.220514	-0.22013	0.00291227	2	-0.000105965	6.41077e-07
2	1	0	1	0	17.5971	-0.212518	-0.212124	0.00423684	2	-0.000105678	8.98734e-07
2	1	0	1	0	17.6771	-0.204521	-0.204129	0.00549499	2	-0.000105288	1.12169e-06
2	1	0	1	0	17.7571	-0.196524	-0.196109	0.00659675	2	-0.000104802	1.29368e-06
2	1	0	1	0	17.8371	-0.188527	-0.188095	0.00742956	2	-0.000104238	1.39747e-06
2	1	0	1	0	17.9171	-0.180531	-0.180098	0.00791514	2	-0.000103622	1.4255e-06
2	1	0	1	0	17.9971	-0.172534	-0.172108	0.00804039	2	-0.000102982	1.38382e-06
2	1	0	0	0	18.0769	-0.164537	-0.164113	0.00792274	2	-0.000102343	1.30022e-06
2	1	0	0	0	18.1569	-0.156541	-0.156084	0.00760976	2	-0.000101721	1.18776e-06
2	1	0	0	0	18.2369	-0.148544	-0.148105	0.00722454	2	-0.000101128	1.06999e-06
2	1	0	0	0	18.3169	-0.140547	-0.140097	0.00680549	2	-0.000100567	9.53426e-07
2	1	0	0	0	18.3969	-0.13255	-0.132109	0.00642881	2	-0.000100037	8.49302e-07
2	1	0	0	0	18.4769	-0.124554	-0.124134	0.00608596	2	-9.95366e-05	7.55473e-07
2	1	0	1	0	18.5567	-0.116557	-0.116118	0.00581521	2	-9.90614e-05	6.75252e-07
2	1	0	1	0	18.6367	-0.10856	-0.10811	0.00557291	2	-9.8606e-05	6.02488e-07
2	1	0	1	0	18.7167	-0.100564	-0.100128	0.00537718	2	-9.8168e-05	5.38405e-07
2	1	0	1	0	18.7967	-0.0925668	-0.0921304	0.0052215	2	-9.77438e-05	4.81059e-07
2	1	0	1	0	18.8767	-0.0845701	-0.0841269	0.00510774	2	-9.73305e-05	4.29698e-07
2	1	0	1	0	18.9567	-0.0765734	-0.0761357	0.00499909	2	-9.69262e-05	3.80609e-07
2	1	0	0	0	19.0365	-0.0685766	-0.0681486	0.00493385	2	-9.65289e-05	3.36235e-07
2	1	0	0	0	19.1165	-0.0605799	-0.060153	0.00489802	2	-9.61357e-05	2.94631e-07
2	1	0	0	0	19.1965	-0.0525832	-0.0521493	0.00484192	2	-9.57458e-05	2.52502e-07
2	1	0	0	0	19.2765	-0.0445865	-0.0441492	0.00483578	2	-9.53582e-05	2.13496e-07
2	1	0	0	0	19.3565	-0.0365898	-0.0361568	0.00482996	2	-9.49715e-05	1.74636e-07
2	1	0	0	0	19.4365	-0.028593	-0.0281855	0.00482404	2	-9.45851e-05	1.35968e-07
2	1	0	1	0	19.5163	-0.0205963	-0.0201799	0.00483037	2	-9.41988e-05	9.74765e-08
2	1	0	1	0	19.5963	-0.0125996	-0.0121991	0.0048592	2	-9.38105e-05	5.92781e-08
2	1	0	1	0	19.6763	-0.00460289	-0.00418826	0.00488027	2	-9.34202e-05	2.04398e-08
2	1	0	1	0	19.7563	0.00339383	0.00381372	0.00493338	2	-9.30276e-05	1.88146e-08
2	1	0	1	0	19.8363	0.0113905	0.0118057	0.00494859	2	-9.26323e-05	5.84218e-08
2	1	0	1	0	19.9163	0.0193873	0.019838	0.00499985	2	-9.2234e-05	9.91872e-08
2	1	0	1	0	19.9632	0.0240925	0.0245254	0.00508797	2	-9.19988e-05	1.24785e-07