File: TAP_Report/Data/MB_Suscept/6_bw_anti_3_C01_2.mpt
EC-Lab ASCII FILE
Nb header lines : 56

Cyclic Voltammetry

Run on channel : 1 (SN 0696)
User :
Electrode connection : standard
Ewe ctrl range : min = -2.50 V, max = 2.50 V
Ewe,I filtering : 50 kHz
Safety Limits :
	Do not start on E overload
Channel : Floating
Acquisition started on : 09/12/2016 16:09:37
Saved on :
	File : 6_bw_anti_3_C01.mpr
	Directory : \\userfs\st659\w2k\EC-Lab\Data\Meth_Blue 12-09-16\
	Host : 144.32.136.43
Device : SP-300 (SN 0182)
Address : USB
EC-Lab for windows v10.44 (software)
Internet server v10.44 (firmware)
Command interpretor v10.44 (firmware)
Electrode material :
Initial state :
Electrolyte :
Comments :
Cable : standard
Reference electrode : SCE Saturated Calomel Electrode (0.241 V)
Electrode surface area : 0.001 cm²
Characteristic mass : 0.001 g
Equivalent Weight : 0.000 g/eq.
Density : 0.000 g/cm3
Ei (V)              0.000
vs.                 Eoc
dE/dt               100.000
dE/dt unit          mV/s
E1 (V)              0.100
vs.                 Ref
Step percent        50
N                   10
E range min (V)     -2.500
E range max (V)     2.500
I Range             Auto
I Range min         Unset
I Range max         Unset
I Range init        Unset
Bandwidth           8
E2 (V)              -0.400
vs.                 Ref
nc cycles           2
Reverse Scan        1
Ef (V)              0.000
vs.                 Eoc

mode	ox/red	error	control changes	counter inc.	time/s	control/V	Ewe/V	<I>/mA	cycle number	(Q-Qo)/C	P/W
2	1	0	1	1	9.9638	0.0180046	0.0185602	0.00498081	2	-5.03156e-05	9.24445e-08
2	1	0	0	1	10.0393	0.0255515	0.0260572	0.0049207	2	-4.99447e-05	1.2822e-07
2	1	0	0	1	10.1193	0.0335482	0.0340545	0.00494443	2	-4.95492e-05	1.6838e-07
2	1	0	0	1	10.1993	0.0415449	0.0420404	0.00498788	2	-4.91505e-05	2.09693e-07
2	1	0	0	1	10.2793	0.0495415	0.0500237	0.00503524	2	-4.87485e-05	2.51881e-07
2	1	0	0	1	10.3593	0.0575382	0.0580168	0.00509159	2	-4.83427e-05	2.95398e-07
2	1	0	0	1	10.4393	0.0655349	0.0660429	0.00516007	2	-4.79323e-05	3.40786e-07
2	1	0	1	1	10.5191	0.0735316	0.0740339	0.00521792	2	-4.75176e-05	3.86303e-07
2	1	0	1	1	10.5991	0.0815283	0.0820134	0.00530593	2	-4.70967e-05	4.35157e-07
2	1	0	1	1	10.6791	0.089525	0.0900122	0.00537413	2	-4.66695e-05	4.83737e-07
2	1	0	1	1	10.7591	0.0975217	0.0980191	0.00546363	2	-4.62353e-05	5.3554e-07
2	0	0	1	1	10.8295	0.0954226	0.0958445	0.00154935	2	-4.59997e-05	1.48496e-07
2	0	0	1	1	10.9095	0.0874259	0.0878321	0.000573537	2	-4.5921e-05	5.0375e-08
2	0	0	1	1	10.9895	0.0794292	0.0798272	1.16323e-05	2	-4.58993e-05	9.28572e-10
2	0	0	1	1	11.0695	0.0714325	0.0718332	-0.000367576	2	-4.59142e-05	2.64042e-08
2	0	0	0	1	11.1493	0.0634358	0.0638444	-0.000672017	2	-4.59565e-05	4.29046e-08
2	0	0	0	1	11.2293	0.0554391	0.055834	-0.000894013	2	-4.602e-05	4.99163e-08
2	0	0	0	1	11.3093	0.0474424	0.0478316	-0.00110033	2	-4.61009e-05	5.26307e-08
2	0	0	0	1	11.3893	0.0394457	0.039844	-0.00127345	2	-4.61964e-05	5.07395e-08
2	0	0	0	1	11.4693	0.031449	0.0318486	-0.00141591	2	-4.63049e-05	4.50948e-08
2	0	0	0	1	11.5493	0.0234524	0.0238475	-0.00155194	2	-4.64244e-05	3.70098e-08
2	0	0	1	1	11.6291	0.0154557	0.0158671	-0.00167373	2	-4.65546e-05	2.65572e-08
2	0	0	1	1	11.7091	0.00745897	0.00784922	-0.0017995	2	-4.66943e-05	1.41247e-08
2	0	0	1	1	11.7891	-0.000537714	-0.000169712	-0.00190167	2	-4.68429e-05	3.22736e-10
2	0	0	1	1	11.8691	-0.00853441	-0.0081452	-0.00199907	2	-4.69998e-05	1.62829e-08
2	0	0	1	1	11.9491	-0.0165311	-0.0161552	-0.00210268	2	-4.7165e-05	3.39693e-08
2	0	0	1	1	12.0291	-0.0245278	-0.0241453	-0.00219653	2	-4.73379e-05	5.3036e-08
2	0	0	0	1	12.1089	-0.0325245	-0.0321302	-0.00229275	2	-4.75184e-05	7.36664e-08
2	0	0	0	1	12.1889	-0.0405212	-0.0401423	-0.00239723	2	-4.77072e-05	9.62304e-08
2	0	0	0	1	12.2689	-0.0485179	-0.0481373	-0.00248378	2	-4.79036e-05	1.19562e-07
2	0	0	0	1	12.3489	-0.0565146	-0.0561327	-0.00257591	2	-4.81077e-05	1.44593e-07
2	0	0	0	1	12.4289	-0.0645113	-0.0641254	-0.00267738	2	-4.83196e-05	1.71688e-07
2	0	0	0	1	12.5089	-0.0725079	-0.0721225	-0.00278766	2	-4.85393e-05	2.01053e-07
2	0	0	1	1	12.5887	-0.0805046	-0.0801202	-0.0028915	2	-4.87669e-05	2.31667e-07
2	0	0	1	1	12.6687	-0.0885013	-0.088115	-0.00301941	2	-4.90033e-05	2.66055e-07
2	0	0	1	1	12.7487	-0.096498	-0.0961231	-0.00309907	2	-4.92488e-05	2.97893e-07
2	0	0	1	1	12.8287	-0.104495	-0.104119	-0.00324291	2	-4.9504e-05	3.37649e-07
2	0	0	1	1	12.9087	-0.112491	-0.11211	-0.00337621	2	-4.97697e-05	3.78507e-07
2	0	0	1	1	12.9887	-0.120488	-0.120125	-0.00354799	2	-5.00481e-05	4.26203e-07
2	0	0	0	1	13.0685	-0.128485	-0.128109	-0.00376033	2	-5.03403e-05	4.81732e-07
2	0	0	0	1	13.1485	-0.136481	-0.136098	-0.00403127	2	-5.06515e-05	5.48649e-07
2	0	0	0	1	13.2285	-0.144478	-0.144103	-0.00434646	2	-5.09862e-05	6.26337e-07
2	0	0	0	1	13.3085	-0.152475	-0.152107	-0.00478557	2	-5.13516e-05	7.27916e-07
2	0	0	0	1	13.3885	-0.160472	-0.16009	-0.00538188	2	-5.17582e-05	8.61587e-07
2	0	0	0	1	13.4685	-0.168468	-0.168109	-0.00617283	2	-5.22197e-05	1.03771e-06
2	0	0	1	1	13.5483	-0.176465	-0.176114	-0.00716072	2	-5.27513e-05	1.2611e-06
2	0	0	1	1	13.6283	-0.184462	-0.184096	-0.00835419	2	-5.3372e-05	1.53797e-06
2	0	0	1	1	13.7083	-0.192458	-0.192108	-0.00971365	2	-5.40956e-05	1.86607e-06
2	0	0	0	1	13.8193	-0.203554	-0.203186	-0.0113975	2	-5.52745e-05	2.31582e-06
2	0	0	0	1	13.8993	-0.21155	-0.211181	-0.0126366	2	-5.62566e-05	2.66862e-06
2	0	0	0	1	13.9793	-0.219547	-0.219173	-0.0137377	2	-5.73333e-05	3.01094e-06
2	0	0	1	1	14.0591	-0.227544	-0.227185	-0.014614	2	-5.84846e-05	3.32009e-06
2	0	0	1	1	14.1391	-0.23554	-0.235168	-0.0152053	2	-5.96975e-05	3.57579e-06
2	0	0	1	1	14.2191	-0.243537	-0.243151	-0.0156338	2	-6.09527e-05	3.80137e-06
2	0	0	1	1	14.2991	-0.251534	-0.251143	-0.015954	2	-6.22367e-05	4.00674e-06
2	0	0	1	1	14.3791	-0.259531	-0.25916	-0.0161224	2	-6.35398e-05	4.17828e-06
2	0	0	1	1	14.4591	-0.267527	-0.267153	-0.0162889	2	-6.48555e-05	4.35163e-06
2	0	0	0	1	14.5389	-0.275524	-0.275162	-0.0163629	2	-6.61783e-05	4.50244e-06
2	0	0	0	1	14.6189	-0.283521	-0.283154	-0.016512	2	-6.7513e-05	4.67545e-06
2	0	0	0	1	14.6989	-0.291517	-0.291149	-0.0166406	2	-6.88575e-05	4.8449e-06
2	0	0	0	1	14.7789	-0.299514	-0.299139	-0.0168107	2	-7.02152e-05	5.02872e-06
2	0	0	0	1	14.8589	-0.307511	-0.307153	-0.0170739	2	-7.15895e-05	5.24428e-06
2	0	0	0	1	14.9389	-0.315507	-0.315161	-0.0173466	2	-7.29846e-05	5.46697e-06
2	0	0	1	1	15.0187	-0.323504	-0.323154	-0.017713	2	-7.44025e-05	5.72401e-06
2	0	0	1	1	15.0987	-0.331501	-0.331149	-0.0181075	2	-7.58546e-05	5.99627e-06
2	0	0	1	1	15.1787	-0.339498	-0.339125	-0.0186034	2	-7.73427e-05	6.30887e-06
2	0	0	1	1	15.2587	-0.347494	-0.347119	-0.0191711	2	-7.88729e-05	6.65464e-06
2	0	0	1	1	15.3387	-0.355491	-0.355129	-0.0197512	2	-8.04502e-05	7.01421e-06
2	0	0	1	1	15.4187	-0.363488	-0.363129	-0.0204782	2	-8.20803e-05	7.43623e-06
2	0	0	0	1	15.4985	-0.371484	-0.371121	-0.0212605	2	-8.37646e-05	7.89021e-06
2	0	0	0	1	15.5785	-0.379481	-0.379121	-0.0220951	2	-8.55165e-05	8.37672e-06
2	0	0	0	1	15.6585	-0.387478	-0.38711	-0.0229807	2	-8.73371e-05	8.89606e-06
2	0	0	0	1	15.7385	-0.395474	-0.395115	-0.0239264	2	-8.92312e-05	9.45369e-06
2	1	0	1	0	15.7999	-0.398373	-0.397955	-0.0211077	2	-9.06839e-05	8.3999e-06
2	1	0	1	0	15.8799	-0.390376	-0.389946	-0.0183208	2	-9.22272e-05	7.14413e-06
2	1	0	1	0	15.9599	-0.38238	-0.38197	-0.0164768	2	-9.35955e-05	6.29365e-06
2	1	0	1	0	16.0399	-0.374383	-0.373955	-0.0148735	2	-9.48276e-05	5.56201e-06
2	1	0	0	0	16.1197	-0.366386	-0.365962	-0.0135057	2	-9.59388e-05	4.94255e-06
2	1	0	0	0	16.1997	-0.35839	-0.357964	-0.0122483	2	-9.69481e-05	4.38444e-06
2	1	0	0	0	16.2797	-0.350393	-0.349971	-0.011099	2	-9.78623e-05	3.88432e-06
2	1	0	0	0	16.3597	-0.342396	-0.341969	-0.0100732	2	-9.86896e-05	3.44471e-06
2	1	0	0	0	16.4397	-0.3344	-0.333973	-0.00907461	2	-9.94369e-05	3.03067e-06
2	1	0	0	0	16.5197	-0.326403	-0.325979	-0.00823909	2	-0.00010011	2.68577e-06
2	1	0	1	0	16.5995	-0.318406	-0.317969	-0.007403	2	-0.000100713	2.35393e-06
2	1	0	1	0	16.6795	-0.31041	-0.309994	-0.0066257	2	-0.000101253	2.05393e-06
2	1	0	1	0	16.7595	-0.302413	-0.302001	-0.00588658	2	-0.000101732	1.77775e-06
2	1	0	1	0	16.8395	-0.294416	-0.293987	-0.0051445	2	-0.000102154	1.51242e-06
2	1	0	0	0	16.9505	-0.283321	-0.282897	-0.00399742	2	-0.000102658	1.13086e-06
2	1	0	0	0	17.0305	-0.275324	-0.274902	-0.00332595	2	-0.000102951	9.14311e-07
2	1	0	1	0	17.1103	-0.267327	-0.266908	-0.00261245	2	-0.000103187	6.97284e-07
2	1	0	1	0	17.1903	-0.259331	-0.258884	-0.00188392	2	-0.000103365	4.87718e-07
2	1	0	1	0	17.2703	-0.251334	-0.250908	-0.00105307	2	-0.000103482	2.64223e-07
2	1	0	1	0	17.3503	-0.243337	-0.242904	-0.000142073	2	-0.000103529	3.45102e-08
2	1	0	1	0	17.4303	-0.235341	-0.234908	0.000909091	2	-0.000103498	2.13553e-07
2	1	0	1	0	17.5103	-0.227344	-0.226918	0.0020642	2	-0.000103379	4.68404e-07
2	1	0	0	0	17.5901	-0.219347	-0.218914	0.00337904	2	-0.000103161	7.39718e-07
2	1	0	0	0	17.6701	-0.21135	-0.210907	0.00472219	2	-0.000102836	9.95942e-07
2	1	0	0	0	17.7501	-0.203354	-0.202901	0.00602501	2	-0.000102404	1.22248e-06
2	1	0	0	0	17.8301	-0.195357	-0.194889	0.00712572	2	-0.000101875	1.38873e-06
2	1	0	0	0	17.9101	-0.18736	-0.18688	0.00794521	2	-0.000101269	1.4848e-06
2	1	0	0	0	17.9901	-0.179364	-0.178883	0.00838852	2	-0.000100613	1.50056e-06
2	1	0	1	0	18.0699	-0.171367	-0.170871	0.00849082	2	-9.99366e-05	1.45083e-06
2	1	0	1	0	18.1499	-0.16337	-0.162868	0.00830669	2	-9.92627e-05	1.35289e-06
2	1	0	1	0	18.2299	-0.155374	-0.154865	0.00796245	2	-9.86108e-05	1.23311e-06
2	1	0	1	0	18.3099	-0.147377	-0.146873	0.0075211	2	-9.79904e-05	1.10465e-06
2	1	0	1	0	18.3899	-0.13938	-0.138853	0.00709952	2	-9.74052e-05	9.85791e-07
2	1	0	1	0	18.4699	-0.131384	-0.130872	0.00668354	2	-9.68537e-05	8.74686e-07
2	1	0	0	0	18.5497	-0.123387	-0.122881	0.00633446	2	-9.63339e-05	7.78386e-07
2	1	0	0	0	18.6297	-0.11539	-0.11489	0.00603192	2	-9.58393e-05	6.93007e-07
2	1	0	0	0	18.7097	-0.107394	-0.106886	0.00576889	2	-9.5367e-05	6.16614e-07
2	1	0	0	0	18.7897	-0.0993968	-0.0988861	0.00555505	2	-9.49131e-05	5.49317e-07
2	1	0	0	0	18.8697	-0.0914001	-0.0908782	0.00540361	2	-9.44743e-05	4.9107e-07
2	1	0	0	0	18.9497	-0.0834034	-0.0829078	0.00526368	2	-9.40474e-05	4.364e-07
2	1	0	1	0	19.0295	-0.0754067	-0.0749101	0.00515032	2	-9.3631e-05	3.85811e-07
2	1	0	1	0	19.1095	-0.0674101	-0.0669155	0.00506763	2	-9.32213e-05	3.39103e-07
2	1	0	1	0	19.1895	-0.0594134	-0.0589027	0.00502509	2	-9.28171e-05	2.95991e-07
2	1	0	1	0	19.2695	-0.0514167	-0.0509113	0.0049568	2	-9.24173e-05	2.52357e-07
2	1	0	1	0	19.3495	-0.04342	-0.0429191	0.00493711	2	-9.20204e-05	2.11896e-07
2	1	0	1	0	19.4295	-0.0354233	-0.0349273	0.0049202	2	-9.16253e-05	1.71849e-07
2	1	0	0	0	19.5093	-0.0274266	-0.0269295	0.00491189	2	-9.12319e-05	1.32275e-07
2	1	0	0	0	19.5893	-0.0194299	-0.0189377	0.00491155	2	-9.0838e-05	9.30135e-08
2	1	0	0	0	19.6693	-0.0114332	-0.0109304	0.00493514	2	-9.04436e-05	5.39433e-08
2	1	0	0	0	19.7493	-0.00343652	-0.00296323	0.00493367	2	-9.00482e-05	1.46196e-08
2	1	0	0	0	19.8293	0.00456017	0.00505825	0.00497402	2	-8.96507e-05	2.51599e-08
2	1	0	0	0	19.9093	0.0125569	0.0130587	0.00498961	2	-8.92514e-05	6.5158e-08
2	1	0	0	0	19.9587	0.017501	0.0180193	0.00505483	2	-8.90034e-05	9.10847e-08