File: TAP_Report/Data/MB_Suscept/6_bw_anti_2_C01_2.mpt
EC-Lab ASCII FILE
Nb header lines : 56

Cyclic Voltammetry

Run on channel : 1 (SN 0696)
User :
Electrode connection : standard
Ewe ctrl range : min = -2.50 V, max = 2.50 V
Ewe,I filtering : 50 kHz
Safety Limits :
	Do not start on E overload
Channel : Floating
Acquisition started on : 09/12/2016 16:07:30
Saved on :
	File : 6_bw_anti_2_C01.mpr
	Directory : \\userfs\st659\w2k\EC-Lab\Data\Meth_Blue 12-09-16\
	Host : 144.32.136.43
Device : SP-300 (SN 0182)
Address : USB
EC-Lab for windows v10.44 (software)
Internet server v10.44 (firmware)
Command interpretor v10.44 (firmware)
Electrode material :
Initial state :
Electrolyte :
Comments :
Cable : standard
Reference electrode : SCE Saturated Calomel Electrode (0.241 V)
Electrode surface area : 0.001 cm²
Characteristic mass : 0.001 g
Equivalent Weight : 0.000 g/eq.
Density : 0.000 g/cm3
Ei (V)              0.000
vs.                 Eoc
dE/dt               100.000
dE/dt unit          mV/s
E1 (V)              0.100
vs.                 Ref
Step percent        50
N                   10
E range min (V)     -2.500
E range max (V)     2.500
I Range             Auto
I Range min         Unset
I Range max         Unset
I Range init        Unset
Bandwidth           8
E2 (V)              -0.400
vs.                 Ref
nc cycles           2
Reverse Scan        1
Ef (V)              0.000
vs.                 Eoc

mode	ox/red	error	control changes	counter inc.	time/s	control/V	Ewe/V	<I>/mA	cycle number	(Q-Qo)/C	P/W
2	1	0	1	1	9.966	0.0141243	0.0146149	0.00494636	2	-5.02573e-05	7.22904e-08
2	1	0	0	1	10.0415	0.0216712	0.0221181	0.00484083	2	-4.98927e-05	1.0707e-07
2	1	0	0	1	10.1215	0.0296679	0.0301177	0.00486242	2	-4.95042e-05	1.46445e-07
2	1	0	0	1	10.2015	0.0376646	0.0381216	0.00489052	2	-4.91126e-05	1.86435e-07
2	1	0	0	1	10.2815	0.0456613	0.0461051	0.00493909	2	-4.87176e-05	2.27717e-07
2	1	0	0	1	10.3615	0.053658	0.0540978	0.00498988	2	-4.8319e-05	2.69941e-07
2	1	0	0	1	10.4415	0.0616547	0.0621049	0.00506352	2	-4.79161e-05	3.14469e-07
2	1	0	1	1	10.5213	0.0696514	0.0700922	0.00510397	2	-4.75088e-05	3.57748e-07
2	1	0	1	1	10.6013	0.0776481	0.0780719	0.00517444	2	-4.70957e-05	4.03978e-07
2	1	0	1	1	10.6813	0.0856449	0.0860803	0.0052674	2	-4.66764e-05	4.53419e-07
2	1	0	1	1	10.7613	0.0936416	0.0941041	0.00536536	2	-4.62502e-05	5.04903e-07
2	0	0	0	1	10.8307	0.0994392	0.0998189	0.00280654	2	-4.58878e-05	2.80146e-07
2	0	0	0	1	10.9107	0.0914425	0.0917818	0.000912537	2	-4.57608e-05	8.37543e-08
2	0	0	0	1	10.9907	0.0834458	0.0837834	0.000209027	2	-4.57192e-05	1.7513e-08
2	0	0	0	1	11.0707	0.0754491	0.0758064	-0.000233007	2	-4.57216e-05	1.76635e-08
2	0	0	0	1	11.1507	0.0674523	0.0678144	-0.00056194	2	-4.57553e-05	3.81076e-08
2	0	0	1	1	11.2305	0.0594556	0.0598023	-0.000833135	2	-4.58129e-05	4.98234e-08
2	0	0	1	1	11.3105	0.0514589	0.0518056	-0.00104264	2	-4.58891e-05	5.40143e-08
2	0	0	1	1	11.3905	0.0434622	0.0438119	-0.00122639	2	-4.59808e-05	5.37302e-08
2	0	0	1	1	11.4705	0.0354655	0.0358194	-0.00139022	2	-4.6086e-05	4.9797e-08
2	0	0	1	1	11.5505	0.0274688	0.0278105	-0.00151882	2	-4.62027e-05	4.22389e-08
2	0	0	1	1	11.6305	0.0194721	0.0198271	-0.00163095	2	-4.633e-05	3.2337e-08
2	0	0	0	1	11.7103	0.0114754	0.0118254	-0.00175922	2	-4.64669e-05	2.08034e-08
2	0	0	0	1	11.7903	0.00347864	0.00383505	-0.00186309	2	-4.66127e-05	7.14503e-09
2	0	0	0	1	11.8703	-0.00451807	-0.0041858	-0.00197126	2	-4.67672e-05	8.25128e-09
2	0	0	0	1	11.9503	-0.0125148	-0.0121823	-0.00207533	2	-4.69295e-05	2.52822e-08
2	0	0	0	1	12.0303	-0.0205115	-0.0201692	-0.0021721	2	-4.70995e-05	4.38095e-08
2	0	0	0	1	12.1103	-0.0285082	-0.0281756	-0.00225646	2	-4.72772e-05	6.35771e-08
2	0	0	1	1	12.1901	-0.0365049	-0.0361552	-0.00235519	2	-4.74622e-05	8.51524e-08
2	0	0	1	1	12.2701	-0.0445016	-0.0441423	-0.00245216	2	-4.76552e-05	1.08244e-07
2	0	0	1	1	12.3501	-0.0524984	-0.0521491	-0.00253631	2	-4.78555e-05	1.32266e-07
2	0	0	1	1	12.4301	-0.0604951	-0.0601382	-0.00263441	2	-4.80632e-05	1.58429e-07
2	0	0	1	1	12.5101	-0.0684918	-0.0681552	-0.00273321	2	-4.82787e-05	1.86282e-07
2	0	0	1	1	12.5901	-0.0764885	-0.0761388	-0.0028313	2	-4.85018e-05	2.15571e-07
2	0	0	0	1	12.6699	-0.0844852	-0.084142	-0.00293695	2	-4.87325e-05	2.47121e-07
2	0	0	0	1	12.7499	-0.0924819	-0.0921431	-0.00304115	2	-4.89724e-05	2.80221e-07
2	0	0	0	1	12.8299	-0.100479	-0.100139	-0.003159	2	-4.92208e-05	3.16341e-07
2	0	0	0	1	12.9099	-0.108475	-0.108147	-0.00328789	2	-4.94792e-05	3.55576e-07
2	0	0	0	1	12.9899	-0.116472	-0.116162	-0.0034278	2	-4.97487e-05	3.9818e-07
2	0	0	0	1	13.0699	-0.124469	-0.124156	-0.00361752	2	-5.00309e-05	4.49137e-07
2	0	0	0	1	13.1498	-0.132472	-0.132131	-0.00387087	2	-5.03286e-05	5.11461e-07
2	0	0	1	1	13.2297	-0.140462	-0.140124	-0.00413059	2	-5.06468e-05	5.78795e-07
2	0	0	1	1	13.3097	-0.148459	-0.148126	-0.00449088	2	-5.09911e-05	6.65215e-07
2	0	0	1	1	13.3897	-0.156456	-0.156122	-0.00500039	2	-5.13707e-05	7.80671e-07
2	0	0	1	1	13.4697	-0.164452	-0.164122	-0.00567839	2	-5.17971e-05	9.31947e-07
2	0	0	1	1	13.5497	-0.172449	-0.172133	-0.00655874	2	-5.22857e-05	1.12898e-06
2	0	0	1	1	13.6297	-0.180446	-0.180137	-0.00766048	2	-5.2853e-05	1.37994e-06
2	0	0	0	1	13.7095	-0.188443	-0.188125	-0.0089311	2	-5.35148e-05	1.68016e-06
2	0	0	0	1	13.805	-0.197989	-0.197663	-0.0104321	2	-5.44467e-05	2.06204e-06
2	0	0	1	1	13.9005	-0.207535	-0.207196	-0.0119145	2	-5.55271e-05	2.46863e-06
2	0	0	1	1	13.9805	-0.215531	-0.215195	-0.0130786	2	-5.65493e-05	2.81446e-06
2	0	0	1	1	14.0605	-0.223528	-0.223208	-0.0141074	2	-5.76581e-05	3.14889e-06
2	0	0	0	1	14.1403	-0.231525	-0.23119	-0.0147876	2	-5.88322e-05	3.41875e-06
2	0	0	0	1	14.2203	-0.239522	-0.239182	-0.0153343	2	-6.00594e-05	3.66769e-06
2	0	0	0	1	14.3003	-0.247518	-0.247197	-0.0156969	2	-6.13221e-05	3.88022e-06
2	0	0	0	1	14.3803	-0.255515	-0.255196	-0.0159188	2	-6.2608e-05	4.0624e-06
2	0	0	0	1	14.4603	-0.263512	-0.26318	-0.0160713	2	-6.39089e-05	4.22965e-06
2	0	0	0	1	14.5403	-0.271508	-0.271174	-0.0162073	2	-6.52212e-05	4.39499e-06
2	0	0	1	1	14.6201	-0.279505	-0.279169	-0.0163474	2	-6.65393e-05	4.56369e-06
2	0	0	1	1	14.7001	-0.287502	-0.287157	-0.0164682	2	-6.78704e-05	4.72895e-06
2	0	0	1	1	14.7801	-0.295499	-0.295173	-0.0166043	2	-6.92136e-05	4.90114e-06
2	0	0	1	1	14.8601	-0.303495	-0.303165	-0.0168408	2	-7.05719e-05	5.10553e-06
2	0	0	1	1	14.9401	-0.311492	-0.311163	-0.0171207	2	-7.19504e-05	5.32733e-06
2	0	0	1	1	15.0201	-0.319489	-0.319169	-0.0174414	2	-7.3353e-05	5.56674e-06
2	0	0	0	1	15.0999	-0.327485	-0.327147	-0.0178387	2	-7.47821e-05	5.83587e-06
2	0	0	0	1	15.1799	-0.335482	-0.33516	-0.0183361	2	-7.62497e-05	6.14552e-06
2	0	0	0	1	15.2599	-0.343479	-0.343153	-0.018879	2	-7.77577e-05	6.4784e-06
2	0	0	0	1	15.3399	-0.351476	-0.351148	-0.0195093	2	-7.93122e-05	6.85066e-06
2	0	0	0	1	15.4199	-0.359472	-0.359139	-0.0201721	2	-8.09184e-05	7.24457e-06
2	0	0	0	1	15.4999	-0.367469	-0.36715	-0.020948	2	-8.2582e-05	7.69106e-06
2	0	0	0	1	15.5798	-0.375461	-0.375148	-0.0218021	2	-8.43066e-05	8.17901e-06
2	0	0	1	1	15.6597	-0.383462	-0.38315	-0.0226377	2	-8.61e-05	8.67365e-06
2	0	0	1	1	15.7397	-0.391459	-0.391129	-0.0235636	2	-8.79683e-05	9.2164e-06
2	0	0	1	1	15.8197	-0.399456	-0.399133	-0.0245476	2	-8.99152e-05	9.79776e-06
2	1	0	1	0	15.8913	-0.393458	-0.393073	-0.0193771	2	-9.14027e-05	7.6166e-06
2	1	0	1	0	15.9713	-0.385462	-0.38509	-0.0172729	2	-9.28444e-05	6.65163e-06
2	1	0	1	0	16.0513	-0.377465	-0.37708	-0.0155851	2	-9.41375e-05	5.87683e-06
2	1	0	0	0	16.1311	-0.369468	-0.369071	-0.0141086	2	-9.53017e-05	5.20707e-06
2	1	0	0	0	16.2111	-0.361471	-0.361078	-0.0128289	2	-9.6358e-05	4.63222e-06
2	1	0	0	0	16.2911	-0.353475	-0.353076	-0.0116202	2	-9.73144e-05	4.1028e-06
2	1	0	0	0	16.3711	-0.345478	-0.345101	-0.0105403	2	-9.81796e-05	3.63748e-06
2	1	0	0	0	16.4511	-0.337481	-0.337069	-0.0095546	2	-9.8961e-05	3.22056e-06
2	1	0	0	0	16.5311	-0.329485	-0.329098	-0.00860442	2	-9.96655e-05	2.8317e-06
2	1	0	1	0	16.6109	-0.321488	-0.321104	-0.00775853	2	-0.000100297	2.4913e-06
2	1	0	1	0	16.6909	-0.313491	-0.313117	-0.00694464	2	-0.000100863	2.17449e-06
2	1	0	1	0	16.7709	-0.305494	-0.305117	-0.00613357	2	-0.000101367	1.87146e-06
2	1	0	1	0	16.8509	-0.297498	-0.297097	-0.00543166	2	-0.000101811	1.61373e-06
2	1	0	0	0	16.9619	-0.286402	-0.286005	-0.00427431	2	-0.000102341	1.22248e-06
2	1	0	0	0	17.0418	-0.278406	-0.278007	-0.00356326	2	-0.000102655	9.9061e-07
2	1	0	1	0	17.1217	-0.270409	-0.270024	-0.00291057	2	-0.000102913	7.85925e-07
2	1	0	1	0	17.2017	-0.262412	-0.262031	-0.00219521	2	-0.000103115	5.75211e-07
2	1	0	1	0	17.2817	-0.254415	-0.254036	-0.00140053	2	-0.000103258	3.55787e-07
2	1	0	1	0	17.3617	-0.246419	-0.246029	-0.000530675	2	-0.000103335	1.30561e-07
2	1	0	1	0	17.4417	-0.238422	-0.238028	0.000455083	2	-0.000103337	1.08322e-07
2	1	0	1	0	17.5217	-0.230425	-0.230029	0.00156507	2	-0.000103257	3.6001e-07
2	1	0	0	0	17.6015	-0.222429	-0.222037	0.0028003	2	-0.000103082	6.21771e-07
2	1	0	0	0	17.6815	-0.214432	-0.214015	0.00414551	2	-0.000102803	8.87203e-07
2	1	0	0	0	17.7615	-0.206435	-0.206012	0.0054528	2	-0.000102419	1.12334e-06
2	1	0	0	0	17.8415	-0.198438	-0.198006	0.00662376	2	-0.000101934	1.31155e-06
2	1	0	0	0	17.9215	-0.190442	-0.190008	0.00756076	2	-0.000101365	1.43661e-06
2	1	0	0	0	18.0015	-0.182445	-0.181995	0.00809615	2	-0.000100736	1.47346e-06
2	1	0	1	0	18.0813	-0.174448	-0.173996	0.0083505	2	-0.000100076	1.45296e-06
2	1	0	1	0	18.1613	-0.166452	-0.16601	0.00823621	2	-9.9411e-05	1.36729e-06
2	1	0	1	0	18.2413	-0.158455	-0.157996	0.00793576	2	-9.87612e-05	1.25382e-06
2	1	0	1	0	18.3213	-0.150458	-0.149993	0.00754872	2	-9.81401e-05	1.13226e-06
2	1	0	1	0	18.4013	-0.142461	-0.141984	0.00713379	2	-9.75522e-05	1.01288e-06
2	1	0	1	0	18.4813	-0.134465	-0.133986	0.00670969	2	-9.69983e-05	8.99002e-07
2	1	0	0	0	18.5611	-0.126468	-0.126006	0.00634315	2	-9.64768e-05	7.99272e-07
2	1	0	0	0	18.6411	-0.118471	-0.118008	0.00602112	2	-9.59818e-05	7.10538e-07
2	1	0	0	0	18.7211	-0.110475	-0.110028	0.00576583	2	-9.551e-05	6.34404e-07
2	1	0	0	0	18.8011	-0.102478	-0.102026	0.00553814	2	-9.50577e-05	5.65035e-07
2	1	0	0	0	18.8811	-0.0944811	-0.0940157	0.00535405	2	-9.4621e-05	5.03364e-07
2	1	0	0	0	18.9611	-0.0864844	-0.0860188	0.00520484	2	-9.41973e-05	4.47714e-07
2	1	0	1	0	19.0409	-0.0784877	-0.0780333	0.00511451	2	-9.37846e-05	3.99102e-07
2	1	0	1	0	19.1209	-0.070491	-0.0700347	0.00502601	2	-9.33792e-05	3.51995e-07
2	1	0	1	0	19.2009	-0.0624943	-0.0620406	0.00496568	2	-9.29799e-05	3.08074e-07
2	1	0	1	0	19.2809	-0.0544975	-0.0540437	0.0049	2	-9.25851e-05	2.64814e-07
2	1	0	1	0	19.3609	-0.0465008	-0.0460549	0.00487672	2	-9.21937e-05	2.24597e-07
2	1	0	1	0	19.4409	-0.0385041	-0.0380438	0.0048467	2	-9.18041e-05	1.84387e-07
2	1	0	0	0	19.5207	-0.0305074	-0.0300498	0.00483442	2	-9.14164e-05	1.45274e-07
2	1	0	0	0	19.6007	-0.0225107	-0.0220491	0.00484688	2	-9.10285e-05	1.06869e-07
2	1	0	0	0	19.6807	-0.014514	-0.0140645	0.00485687	2	-9.06403e-05	6.83096e-08
2	1	0	0	0	19.7607	-0.00651725	-0.00606023	0.00487508	2	-9.02507e-05	2.95441e-08
2	1	0	0	0	19.8407	0.00147947	0.00193667	0.00489767	2	-8.98599e-05	9.48515e-09
2	1	0	0	0	19.9207	0.00947618	0.00993398	0.00491119	2	-8.9467e-05	4.87876e-08
2	1	0	1	0	19.966	0.0140243	0.014508	0.0050656	2	-8.92432e-05	7.34919e-08