File: TAP_Report/Data/MB_Suscept/6_bw_noanti_3_C01_2.mpt
EC-Lab ASCII FILE
Nb header lines : 56

Cyclic Voltammetry

Run on channel : 1 (SN 0696)
User :
Electrode connection : standard
Ewe ctrl range : min = -2.50 V, max = 2.50 V
Ewe,I filtering : 50 kHz
Safety Limits :
	Do not start on E overload
Channel : Floating
Acquisition started on : 09/12/2016 16:18:05
Saved on :
	File : 6_bw_noanti_3_C01.mpr
	Directory : \\userfs\st659\w2k\EC-Lab\Data\Meth_Blue 12-09-16\
	Host : 144.32.136.43
Device : SP-300 (SN 0182)
Address : USB
EC-Lab for windows v10.44 (software)
Internet server v10.44 (firmware)
Command interpretor v10.44 (firmware)
Electrode material :
Initial state :
Electrolyte :
Comments :
Cable : standard
Reference electrode : SCE Saturated Calomel Electrode (0.241 V)
Electrode surface area : 0.001 cm²
Characteristic mass : 0.001 g
Equivalent Weight : 0.000 g/eq.
Density : 0.000 g/cm3
Ei (V)              0.000
vs.                 Eoc
dE/dt               100.000
dE/dt unit          mV/s
E1 (V)              0.100
vs.                 Ref
Step percent        50
N                   10
E range min (V)     -2.500
E range max (V)     2.500
I Range             Auto
I Range min         Unset
I Range max         Unset
I Range init        Unset
Bandwidth           8
E2 (V)              -0.400
vs.                 Ref
nc cycles           2
Reverse Scan        1
Ef (V)              0.000
vs.                 Eoc

mode	ox/red	error	control changes	counter inc.	time/s	control/V	Ewe/V	<I>/mA	cycle number	(Q-Qo)/C	P/W
2	1	0	1	1	9.9658	-0.00606669	-0.00561961	0.0047236	2	-3.24947e-05	2.65448e-08
2	1	0	0	1	10.0413	0.00148023	0.00192304	0.00473039	2	-3.21177e-05	9.09671e-09
2	1	0	0	1	10.1213	0.00947696	0.00991866	0.0046977	2	-3.1719e-05	4.65949e-08
2	1	0	0	1	10.2013	0.0174737	0.0179189	0.00477939	2	-3.13206e-05	8.56415e-08
2	1	0	0	1	10.2813	0.0254704	0.0259167	0.00476011	2	-3.09218e-05	1.23366e-07
2	1	0	0	1	10.3613	0.0334672	0.0339021	0.00477285	2	-3.0522e-05	1.6181e-07
2	1	0	0	1	10.4413	0.0414639	0.0419124	0.00476522	2	-3.01202e-05	1.99722e-07
2	1	0	1	1	10.5211	0.0494606	0.0498997	0.00485052	2	-2.97167e-05	2.42039e-07
2	1	0	1	1	10.6011	0.0574574	0.0578905	0.00486238	2	-2.93094e-05	2.81486e-07
2	1	0	1	1	10.6811	0.0654541	0.065899	0.00492668	2	-2.88985e-05	3.24663e-07
2	1	0	1	1	10.7611	0.0734508	0.0738914	0.00498367	2	-2.84833e-05	3.6825e-07
2	1	0	1	1	10.8411	0.0814476	0.0818775	0.00504177	2	-2.80631e-05	4.12808e-07
2	1	0	1	1	10.9211	0.0894443	0.0898547	0.00509632	2	-2.76372e-05	4.57928e-07
2	1	0	0	1	11.0009	0.097441	0.0978775	0.00520449	2	-2.72051e-05	5.09402e-07
2	0	0	1	1	11.0725	0.0954419	0.0958479	0.00182958	2	-2.69614e-05	1.75361e-07
2	0	0	0	1	11.1523	0.0874451	0.0878132	0.000921666	2	-2.68754e-05	8.09345e-08
2	0	0	1	1	11.2633	0.0763497	0.0767299	2.13113e-06	2	-2.68375e-05	1.63522e-10
2	0	0	1	1	11.3433	0.0683529	0.0687203	-0.000340022	2	-2.68522e-05	2.33664e-08
2	0	0	1	1	11.4233	0.0603562	0.0607291	-0.000576969	2	-2.68903e-05	3.50388e-08
2	0	0	1	1	11.5033	0.0523595	0.0527138	-0.000796737	2	-2.69467e-05	4.1999e-08
2	0	0	1	1	11.5833	0.0443627	0.0447409	-0.0009719	2	-2.70185e-05	4.34836e-08
2	0	0	0	1	11.6631	0.036366	0.0367226	-0.00113066	2	-2.71035e-05	4.15209e-08
2	0	0	0	1	11.7431	0.0283692	0.0287293	-0.00125973	2	-2.71999e-05	3.61911e-08
2	0	0	0	1	11.8231	0.0203725	0.0207381	-0.00137151	2	-2.73063e-05	2.84424e-08
2	0	0	0	1	11.9031	0.0123758	0.0127298	-0.001493	2	-2.74221e-05	1.90055e-08
2	0	0	0	1	11.9831	0.00437905	0.00473521	-0.00158732	2	-2.75461e-05	7.5163e-09
2	0	0	0	1	12.0631	-0.00361769	-0.00325999	-0.00168834	2	-2.76785e-05	5.50397e-09
2	0	0	1	1	12.1429	-0.0116144	-0.0112717	-0.00178875	2	-2.78179e-05	2.01623e-08
2	0	0	1	1	12.2229	-0.0196112	-0.0192527	-0.00186524	2	-2.79645e-05	3.5911e-08
2	0	0	1	1	12.3029	-0.0276079	-0.0272519	-0.0019605	2	-2.8118e-05	5.34274e-08
2	0	0	1	1	12.3829	-0.0356046	-0.0352524	-0.00203316	2	-2.8278e-05	7.16738e-08
2	0	0	1	1	12.4629	-0.0436014	-0.0432531	-0.00209914	2	-2.84448e-05	9.07945e-08
2	0	0	1	1	12.5429	-0.0515981	-0.0512284	-0.00219582	2	-2.8618e-05	1.12489e-07
2	0	0	0	1	12.6227	-0.0595949	-0.0592361	-0.00228908	2	-2.87979e-05	1.35596e-07
2	0	0	0	1	12.7027	-0.0675916	-0.0672493	-0.0023719	2	-2.89848e-05	1.59509e-07
2	0	0	0	1	12.7827	-0.0755883	-0.0752384	-0.00245084	2	-2.91787e-05	1.84397e-07
2	0	0	0	1	12.8627	-0.0835851	-0.0832128	-0.0025575	2	-2.93799e-05	2.12817e-07
2	0	0	0	1	12.9427	-0.0915818	-0.0912445	-0.00268519	2	-2.95897e-05	2.45008e-07
2	0	0	0	1	13.0227	-0.0995786	-0.0992144	-0.00280783	2	-2.98087e-05	2.78577e-07
2	0	0	1	1	13.1025	-0.107575	-0.107252	-0.00294411	2	-3.00386e-05	3.1576e-07
2	0	0	1	1	13.1825	-0.115572	-0.115226	-0.00312951	2	-3.02821e-05	3.606e-07
2	0	0	1	1	13.2625	-0.123569	-0.123225	-0.00338799	2	-3.05426e-05	4.17483e-07
2	0	0	1	1	13.3425	-0.131566	-0.131228	-0.00368579	2	-3.08256e-05	4.83678e-07
2	0	0	1	1	13.4225	-0.139562	-0.139229	-0.00414498	2	-3.11387e-05	5.77103e-07
2	0	0	1	1	13.5025	-0.147559	-0.147229	-0.00471827	2	-3.14927e-05	6.94667e-07
2	0	0	0	1	13.5823	-0.155556	-0.155216	-0.00548557	2	-3.19003e-05	8.51447e-07
2	0	0	0	1	13.6623	-0.163552	-0.16322	-0.00647116	2	-3.23787e-05	1.05622e-06
2	0	0	0	1	13.7423	-0.171549	-0.171237	-0.00762071	2	-3.29429e-05	1.30495e-06
2	0	0	0	1	13.8223	-0.179546	-0.179233	-0.00888929	2	-3.36041e-05	1.59326e-06
2	0	0	0	1	13.9023	-0.187543	-0.187251	-0.0101321	2	-3.4366e-05	1.89725e-06
2	0	0	1	1	14.0133	-0.198638	-0.198319	-0.0113521	2	-3.5568e-05	2.25134e-06
2	0	0	0	1	14.0931	-0.206635	-0.206322	-0.0121559	2	-3.65279e-05	2.50804e-06
2	0	0	0	1	14.1731	-0.214632	-0.214302	-0.0126697	2	-3.75444e-05	2.71514e-06
2	0	0	0	1	14.2531	-0.222628	-0.222311	-0.0130779	2	-3.85977e-05	2.90736e-06
2	0	0	0	1	14.3331	-0.230625	-0.230303	-0.0132827	2	-3.9672e-05	3.05905e-06
2	0	0	0	1	14.4131	-0.238622	-0.238296	-0.0133754	2	-4.07562e-05	3.18731e-06
2	0	0	0	1	14.4931	-0.246619	-0.246302	-0.0132973	2	-4.18425e-05	3.27516e-06
2	0	0	1	1	14.5729	-0.254615	-0.254295	-0.0132647	2	-4.29225e-05	3.37315e-06
2	0	0	1	1	14.6529	-0.262612	-0.262297	-0.0131301	2	-4.39978e-05	3.44398e-06
2	0	0	1	1	14.7329	-0.270609	-0.270284	-0.0130751	2	-4.50651e-05	3.53398e-06
2	0	0	1	1	14.8129	-0.278606	-0.278284	-0.0129305	2	-4.61235e-05	3.59833e-06
2	0	0	1	1	14.8929	-0.286602	-0.286274	-0.0128502	2	-4.71739e-05	3.67869e-06
2	0	0	1	1	14.9729	-0.294599	-0.294278	-0.0127356	2	-4.82176e-05	3.7478e-06
2	0	0	0	1	15.0527	-0.302596	-0.302281	-0.0127408	2	-4.92543e-05	3.85129e-06
2	0	0	0	1	15.1327	-0.310592	-0.310289	-0.012711	2	-5.02907e-05	3.94407e-06
2	0	0	0	1	15.2127	-0.318589	-0.318273	-0.0126884	2	-5.13258e-05	4.03838e-06
2	0	0	0	1	15.2927	-0.326586	-0.32627	-0.0127424	2	-5.23626e-05	4.15748e-06
2	0	0	0	1	15.3727	-0.334583	-0.334262	-0.012772	2	-5.34028e-05	4.2692e-06
2	0	0	0	1	15.4527	-0.342579	-0.342263	-0.012895	2	-5.44491e-05	4.41348e-06
2	0	0	1	1	15.5325	-0.350576	-0.350262	-0.0130343	2	-5.55016e-05	4.56541e-06
2	0	0	1	1	15.6125	-0.358573	-0.35824	-0.0131594	2	-5.65673e-05	4.71421e-06
2	0	0	1	1	15.6925	-0.36657	-0.366241	-0.0133445	2	-5.76459e-05	4.88729e-06
2	0	0	1	1	15.7725	-0.374566	-0.374254	-0.0135386	2	-5.87403e-05	5.06687e-06
2	0	0	1	1	15.8525	-0.382563	-0.382248	-0.0137732	2	-5.98522e-05	5.26475e-06
2	0	0	1	1	15.9325	-0.39056	-0.390213	-0.0140432	2	-6.09842e-05	5.47983e-06
2	0	0	1	1	16.0124	-0.398557	-0.398229	-0.0143668	2	-6.21377e-05	5.72125e-06
2	1	0	1	0	16.0827	-0.394458	-0.39406	-0.0100017	2	-6.29454e-05	3.94125e-06
2	1	0	1	0	16.1627	-0.386462	-0.386072	-0.00877035	2	-6.36738e-05	3.38598e-06
2	1	0	1	0	16.2427	-0.378465	-0.378086	-0.0078089	2	-6.43171e-05	2.95244e-06
2	1	0	1	0	16.3227	-0.370468	-0.37007	-0.00710974	2	-6.4894e-05	2.6311e-06
2	1	0	1	0	16.4027	-0.362471	-0.362091	-0.00639793	2	-6.54142e-05	2.31663e-06
2	1	0	1	0	16.4827	-0.354475	-0.354087	-0.00584021	2	-6.58846e-05	2.06794e-06
2	1	0	0	0	16.5625	-0.346478	-0.346096	-0.00527688	2	-6.63083e-05	1.82631e-06
2	1	0	0	0	16.6425	-0.338481	-0.338086	-0.00479009	2	-6.66919e-05	1.61946e-06
2	1	0	1	0	16.7535	-0.327386	-0.32699	-0.003963	2	-6.71697e-05	1.29586e-06
2	1	0	1	0	16.8335	-0.319389	-0.31902	-0.00352721	2	-6.74683e-05	1.12525e-06
2	1	0	1	0	16.9135	-0.311392	-0.311015	-0.00311435	2	-6.77332e-05	9.68608e-07
2	1	0	1	0	16.9935	-0.303395	-0.303023	-0.00272493	2	-6.79663e-05	8.25715e-07
2	1	0	0	0	17.0733	-0.295399	-0.295012	-0.00234919	2	-6.81677e-05	6.93039e-07
2	1	0	0	0	17.1533	-0.287402	-0.287007	-0.00196555	2	-6.83396e-05	5.64124e-07
2	1	0	0	0	17.2333	-0.279405	-0.279009	-0.00158287	2	-6.84815e-05	4.41637e-07
2	1	0	0	0	17.3133	-0.271408	-0.271019	-0.00121302	2	-6.85928e-05	3.2875e-07
2	1	0	0	0	17.3933	-0.263412	-0.263017	-0.000777617	2	-6.86717e-05	2.04526e-07
2	1	0	0	0	17.4733	-0.255415	-0.255023	-0.000336987	2	-6.87159e-05	8.59395e-08
2	1	0	1	0	17.5531	-0.247418	-0.247016	0.000183154	2	-6.87204e-05	4.5242e-08
2	1	0	1	0	17.6331	-0.239422	-0.239035	0.00081361	2	-6.86798e-05	1.94481e-07
2	1	0	1	0	17.7131	-0.231425	-0.231031	0.00155931	2	-6.85852e-05	3.60248e-07
2	1	0	1	0	17.7931	-0.223428	-0.223045	0.00245552	2	-6.84252e-05	5.47691e-07
2	1	0	1	0	17.8731	-0.215431	-0.215034	0.00354824	2	-6.81859e-05	7.62994e-07
2	1	0	1	0	17.9531	-0.207435	-0.207028	0.00478893	2	-6.78525e-05	9.91443e-07
2	1	0	0	0	18.0329	-0.199438	-0.199008	0.00620927	2	-6.74127e-05	1.23569e-06
2	1	0	0	0	18.1129	-0.191441	-0.190995	0.00757218	2	-6.68607e-05	1.44625e-06
2	1	0	0	0	18.1929	-0.183444	-0.182992	0.00879929	2	-6.62033e-05	1.6102e-06
2	1	0	0	0	18.2729	-0.175448	-0.174988	0.00967327	2	-6.54616e-05	1.6927e-06
2	1	0	0	0	18.3529	-0.167451	-0.167005	0.0101357	2	-6.46662e-05	1.69271e-06
2	1	0	0	0	18.4329	-0.159454	-0.158998	0.0101599	2	-6.38517e-05	1.6154e-06
2	1	0	1	0	18.5127	-0.151457	-0.151018	0.00986197	2	-6.30507e-05	1.48934e-06
2	1	0	1	0	18.5927	-0.143461	-0.142991	0.00936228	2	-6.22805e-05	1.33872e-06
2	1	0	1	0	18.6727	-0.135464	-0.134987	0.0087848	2	-6.15545e-05	1.18583e-06
2	1	0	1	0	18.7527	-0.127467	-0.127015	0.00821108	2	-6.08753e-05	1.04293e-06
2	1	0	1	0	18.8327	-0.11947	-0.119012	0.00769122	2	-6.02408e-05	9.1535e-07
2	1	0	1	0	18.9127	-0.111474	-0.111016	0.00720861	2	-5.96456e-05	8.00268e-07
2	1	0	0	0	18.9925	-0.103477	-0.103013	0.00681583	2	-5.90855e-05	7.0212e-07
2	1	0	0	0	19.0725	-0.0954802	-0.0950071	0.00649783	2	-5.85528e-05	6.1734e-07
2	1	0	0	0	19.1525	-0.0874835	-0.0870238	0.00622124	2	-5.80444e-05	5.41396e-07
2	1	0	0	0	19.2325	-0.0794867	-0.0790358	0.00598648	2	-5.75559e-05	4.73146e-07
2	1	0	0	0	19.3125	-0.07149	-0.0710516	0.00580827	2	-5.70838e-05	4.12687e-07
2	1	0	0	0	19.3925	-0.0634933	-0.063038	0.00564749	2	-5.66253e-05	3.56006e-07
2	1	0	0	0	19.4724	-0.0554965	-0.0550433	0.00555473	2	-5.61781e-05	3.05751e-07
2	1	0	1	0	19.5523	-0.0474998	-0.0470478	0.00544612	2	-5.57398e-05	2.56228e-07
2	1	0	1	0	19.6323	-0.0395031	-0.0390371	0.00534446	2	-5.53084e-05	2.08632e-07
2	1	0	1	0	19.7123	-0.0315063	-0.0310576	0.00527625	2	-5.48826e-05	1.63868e-07
2	1	0	1	0	19.7923	-0.0235096	-0.023076	0.00523576	2	-5.44619e-05	1.2082e-07
2	1	0	1	0	19.8723	-0.0155128	-0.0150655	0.00520238	2	-5.40445e-05	7.83765e-08
2	1	0	1	0	19.9523	-0.0075161	-0.00706014	0.00516801	2	-5.36293e-05	3.64869e-08
2	1	0	1	0	19.9617	-0.00656777	-0.0061138	0.00522679	2	-5.35803e-05	3.19556e-08