File: TAP_Report/Data/MB_Suscept/6_bw_noanti_2_C01_2.mpt
EC-Lab ASCII FILE
Nb header lines : 56

Cyclic Voltammetry

Run on channel : 1 (SN 0696)
User :
Electrode connection : standard
Ewe ctrl range : min = -2.50 V, max = 2.50 V
Ewe,I filtering : 50 kHz
Safety Limits :
	Do not start on E overload
Channel : Floating
Acquisition started on : 09/12/2016 16:15:49
Saved on :
	File : 6_bw_noanti_2_C01.mpr
	Directory : \\userfs\st659\w2k\EC-Lab\Data\Meth_Blue 12-09-16\
	Host : 144.32.136.43
Device : SP-300 (SN 0182)
Address : USB
EC-Lab for windows v10.44 (software)
Internet server v10.44 (firmware)
Command interpretor v10.44 (firmware)
Electrode material :
Initial state :
Electrolyte :
Comments :
Cable : standard
Reference electrode : SCE Saturated Calomel Electrode (0.241 V)
Electrode surface area : 0.001 cm²
Characteristic mass : 0.001 g
Equivalent Weight : 0.000 g/eq.
Density : 0.000 g/cm3
Ei (V)              0.000
vs.                 Eoc
dE/dt               100.000
dE/dt unit          mV/s
E1 (V)              0.100
vs.                 Ref
Step percent        50
N                   10
E range min (V)     -2.500
E range max (V)     2.500
I Range             Auto
I Range min         Unset
I Range max         Unset
I Range init        Unset
Bandwidth           8
E2 (V)              -0.400
vs.                 Ref
nc cycles           2
Reverse Scan        1
Ef (V)              0.000
vs.                 Eoc

mode	ox/red	error	control changes	counter inc.	time/s	control/V	Ewe/V	<I>/mA	cycle number	(Q-Qo)/C	P/W
2	1	0	1	1	9.999	0.00840117	0.00887507	0.00471387	2	-3.32893e-05	4.18359e-08
2	1	0	0	1	10.0745	0.0159481	0.0164315	0.00473885	2	-3.29124e-05	7.78664e-08
2	1	0	0	1	10.1545	0.0239448	0.0244224	0.00470962	2	-3.25129e-05	1.1502e-07
2	1	0	0	1	10.2345	0.0319415	0.032407	0.00475127	2	-3.21123e-05	1.53975e-07
2	1	0	0	1	10.3145	0.0399382	0.0403997	0.0047999	2	-3.17101e-05	1.93914e-07
2	1	0	0	1	10.3945	0.0479349	0.0484048	0.00487233	2	-3.13055e-05	2.35844e-07
2	1	0	0	1	10.4745	0.0559316	0.0564102	0.00485865	2	-3.08983e-05	2.74078e-07
2	1	0	1	1	10.5543	0.0639284	0.0643857	0.00490765	2	-3.04882e-05	3.15983e-07
2	1	0	1	1	10.6343	0.0719251	0.0723733	0.00495702	2	-3.00733e-05	3.58756e-07
2	1	0	1	1	10.7143	0.0799218	0.0803704	0.00503899	2	-2.9654e-05	4.04986e-07
2	1	0	1	1	10.7943	0.0879185	0.0883575	0.0050822	2	-2.92294e-05	4.4905e-07
2	1	0	1	1	10.8743	0.0959152	0.0963752	0.00516806	2	-2.87983e-05	4.98073e-07
2	0	0	1	1	10.9407	0.0974146	0.0978066	0.00230982	2	-2.85111e-05	2.25916e-07
2	0	0	1	1	11.0207	0.0894179	0.0898082	0.00108217	2	-2.84047e-05	9.71879e-08
2	0	0	1	1	11.1007	0.0814212	0.0818319	0.000497211	2	-2.83621e-05	4.06877e-08
2	0	0	0	1	11.2117	0.0703257	0.0707199	-0.000260689	2	-2.83726e-05	1.84359e-08
2	0	0	0	1	11.2917	0.062329	0.0627224	-0.000528037	2	-2.84057e-05	3.31197e-08
2	0	0	1	1	11.3715	0.0543323	0.0547257	-0.000751187	2	-2.84583e-05	4.11093e-08
2	0	0	1	1	11.4515	0.0463356	0.0467244	-0.000936486	2	-2.85267e-05	4.37567e-08
2	0	0	1	1	11.5315	0.0383389	0.0387288	-0.00110169	2	-2.86087e-05	4.26671e-08
2	0	0	1	1	11.6115	0.0303422	0.030742	-0.00124023	2	-2.87025e-05	3.81273e-08
2	0	0	1	1	11.6915	0.0223454	0.0227471	-0.00136237	2	-2.88068e-05	3.09898e-08
2	0	0	1	1	11.7715	0.0143487	0.0147444	-0.00147286	2	-2.89208e-05	2.17166e-08
2	0	0	0	1	11.8513	0.00635201	0.00673865	-0.00157967	2	-2.90436e-05	1.06448e-08
2	0	0	0	1	11.9313	-0.00164471	-0.00127414	-0.00169408	2	-2.91748e-05	2.1585e-09
2	0	0	0	1	12.0113	-0.00964143	-0.00922928	-0.00177672	2	-2.93136e-05	1.63978e-08
2	0	0	0	1	12.0913	-0.0176381	-0.0172578	-0.00186187	2	-2.94598e-05	3.21316e-08
2	0	0	0	1	12.1713	-0.0256349	-0.0252438	-0.00195055	2	-2.96131e-05	4.92395e-08
2	0	0	0	1	12.2513	-0.0336316	-0.0332348	-0.00204598	2	-2.97732e-05	6.79977e-08
2	0	0	1	1	12.3311	-0.0416283	-0.0412559	-0.00212617	2	-2.99404e-05	8.7717e-08
2	0	0	1	1	12.4111	-0.049625	-0.0492455	-0.00222104	2	-3.01145e-05	1.09376e-07
2	0	0	1	1	12.4911	-0.0576217	-0.0572395	-0.00230224	2	-3.02955e-05	1.31779e-07
2	0	0	1	1	12.5711	-0.0656185	-0.0652296	-0.00239045	2	-3.04835e-05	1.55928e-07
2	0	0	1	1	12.6511	-0.0736152	-0.0732502	-0.0024893	2	-3.06788e-05	1.82342e-07
2	0	0	1	1	12.7311	-0.0816119	-0.081216	-0.00258106	2	-3.08816e-05	2.09623e-07
2	0	0	1	1	12.811	-0.0896132	-0.0892349	-0.002711	2	-3.10926e-05	2.41916e-07
2	0	0	0	1	12.8909	-0.0976053	-0.0972146	-0.00282657	2	-3.13131e-05	2.74784e-07
2	0	0	0	1	12.9709	-0.105602	-0.105234	-0.00296009	2	-3.15445e-05	3.11504e-07
2	0	0	0	1	13.0509	-0.113599	-0.113208	-0.00313111	2	-3.17884e-05	3.54467e-07
2	0	0	0	1	13.1309	-0.121595	-0.121216	-0.00337522	2	-3.20486e-05	4.0913e-07
2	0	0	0	1	13.2109	-0.129592	-0.129226	-0.00364739	2	-3.23297e-05	4.71337e-07
2	0	0	0	1	13.2909	-0.137589	-0.137208	-0.00408066	2	-3.26387e-05	5.59898e-07
2	0	0	1	1	13.3707	-0.145586	-0.145222	-0.00461392	2	-3.29853e-05	6.70042e-07
2	0	0	1	1	13.4507	-0.153582	-0.153216	-0.00533439	2	-3.33828e-05	8.17313e-07
2	0	0	1	1	13.5307	-0.161579	-0.161218	-0.00625966	2	-3.38457e-05	1.00917e-06
2	0	0	1	1	13.6107	-0.169576	-0.169234	-0.00736942	2	-3.43908e-05	1.24716e-06
2	0	0	1	1	13.6907	-0.177573	-0.17724	-0.00860639	2	-3.50301e-05	1.5254e-06
2	0	0	1	1	13.7707	-0.185569	-0.185223	-0.00986831	2	-3.57697e-05	1.82783e-06
2	0	0	1	1	13.8815	-0.196665	-0.196302	-0.0111315	2	-3.69462e-05	2.18514e-06
2	0	0	1	1	13.9615	-0.204661	-0.204319	-0.0120186	2	-3.78948e-05	2.45564e-06
2	0	0	1	1	14.0415	-0.212658	-0.212293	-0.0126603	2	-3.89033e-05	2.6877e-06
2	0	0	1	1	14.1215	-0.220655	-0.220292	-0.0130496	2	-3.99542e-05	2.87472e-06
2	0	0	1	1	14.2015	-0.228652	-0.228301	-0.0132925	2	-4.10306e-05	3.03469e-06
2	0	0	0	1	14.2813	-0.236648	-0.236281	-0.0134166	2	-4.21177e-05	3.1701e-06
2	0	0	0	1	14.3613	-0.244645	-0.24429	-0.0134327	2	-4.32121e-05	3.28147e-06
2	0	0	0	1	14.4413	-0.252642	-0.252305	-0.0134007	2	-4.43042e-05	3.38107e-06
2	0	0	0	1	14.5213	-0.260638	-0.260284	-0.0132579	2	-4.53901e-05	3.45081e-06
2	0	0	0	1	14.6013	-0.268635	-0.268293	-0.0132032	2	-4.64682e-05	3.54233e-06
2	0	0	0	1	14.6813	-0.276632	-0.276273	-0.0130695	2	-4.75376e-05	3.61076e-06
2	0	0	0	1	14.7612	-0.284635	-0.284274	-0.0130286	2	-4.85975e-05	3.70368e-06
2	0	0	1	1	14.8411	-0.292625	-0.292275	-0.0128689	2	-4.96505e-05	3.76125e-06
2	0	0	1	1	14.9211	-0.300622	-0.300255	-0.0128169	2	-5.06992e-05	3.84835e-06
2	0	0	1	1	15.0011	-0.308619	-0.308275	-0.0128051	2	-5.17441e-05	3.94749e-06
2	0	0	1	1	15.0811	-0.316615	-0.316285	-0.0128106	2	-5.27874e-05	4.0518e-06
2	0	0	1	1	15.1611	-0.324612	-0.324268	-0.0128245	2	-5.38315e-05	4.15858e-06
2	0	0	1	1	15.2411	-0.332609	-0.332259	-0.0128418	2	-5.48781e-05	4.26681e-06
2	0	0	0	1	15.3209	-0.340606	-0.340254	-0.0129491	2	-5.59277e-05	4.40598e-06
2	0	0	0	1	15.4009	-0.348602	-0.348239	-0.0130543	2	-5.69869e-05	4.54602e-06
2	0	0	0	1	15.4809	-0.356599	-0.356256	-0.0131965	2	-5.80555e-05	4.70132e-06
2	0	0	0	1	15.5609	-0.364596	-0.364241	-0.0133304	2	-5.91358e-05	4.85549e-06
2	0	0	0	1	15.6409	-0.372592	-0.372234	-0.0135265	2	-6.023e-05	5.03503e-06
2	0	0	0	1	15.7209	-0.380589	-0.380246	-0.0137002	2	-6.13404e-05	5.20945e-06
2	0	0	1	1	15.8007	-0.388586	-0.388226	-0.0139799	2	-6.24669e-05	5.42738e-06
2	0	0	1	1	15.8807	-0.396583	-0.396239	-0.0142597	2	-6.36164e-05	5.65024e-06
2	1	0	1	0	15.9503	-0.396483	-0.396066	-0.0104971	2	-6.45047e-05	4.15756e-06
2	1	0	1	0	16.0303	-0.388486	-0.388075	-0.00901677	2	-6.52579e-05	3.49919e-06
2	1	0	0	0	16.1101	-0.380489	-0.380087	-0.00803972	2	-6.59156e-05	3.05579e-06
2	1	0	0	0	16.1901	-0.372493	-0.372065	-0.00719223	2	-6.65058e-05	2.67598e-06
2	1	0	0	0	16.2701	-0.364496	-0.364079	-0.00659654	2	-6.70381e-05	2.40166e-06
2	1	0	0	0	16.3501	-0.356499	-0.356086	-0.00595023	2	-6.75196e-05	2.1188e-06
2	1	0	0	0	16.4301	-0.348502	-0.348094	-0.00541662	2	-6.79552e-05	1.88549e-06
2	1	0	0	0	16.5101	-0.340506	-0.340085	-0.00492994	2	-6.83489e-05	1.6766e-06
2	1	0	1	0	16.6199	-0.32951	-0.329093	-0.00408843	2	-6.88427e-05	1.34547e-06
2	1	0	1	0	16.6999	-0.321513	-0.321108	-0.00364057	2	-6.91509e-05	1.16901e-06
2	1	0	1	0	16.7799	-0.313517	-0.313114	-0.00324714	2	-6.94255e-05	1.01672e-06
2	1	0	1	0	16.8599	-0.30552	-0.30511	-0.00284642	2	-6.96682e-05	8.6847e-07
2	1	0	1	0	16.9399	-0.297523	-0.297125	-0.00246463	2	-6.988e-05	7.32301e-07
2	1	0	1	0	17.0199	-0.289527	-0.289104	-0.00208566	2	-7.00614e-05	6.02972e-07
2	1	0	0	0	17.0997	-0.28153	-0.281121	-0.00169706	2	-7.02123e-05	4.77078e-07
2	1	0	0	0	17.1797	-0.273533	-0.273118	-0.00133318	2	-7.03333e-05	3.64117e-07
2	1	0	0	0	17.2597	-0.265536	-0.265124	-0.000915493	2	-7.04223e-05	2.42719e-07
2	1	0	0	0	17.3397	-0.25754	-0.257119	-0.000474096	2	-7.04774e-05	1.21899e-07
2	1	0	0	0	17.4197	-0.249543	-0.249099	2.81128e-05	2	-7.04943e-05	7.00288e-09
2	1	0	0	0	17.4997	-0.241546	-0.241126	0.000652995	2	-7.04677e-05	1.57454e-07
2	1	0	1	0	17.5795	-0.23355	-0.233127	0.00132339	2	-7.0389e-05	3.08519e-07
2	1	0	1	0	17.6595	-0.225553	-0.225151	0.00220113	2	-7.02476e-05	4.95584e-07
2	1	0	1	0	17.7395	-0.217556	-0.217141	0.00323751	2	-7.00303e-05	7.02995e-07
2	1	0	1	0	17.8195	-0.209559	-0.209114	0.00446462	2	-6.97218e-05	9.33614e-07
2	1	0	1	0	17.8995	-0.201563	-0.201134	0.0058522	2	-6.93087e-05	1.17707e-06
2	1	0	1	0	17.9795	-0.193566	-0.193114	0.00725692	2	-6.87834e-05	1.40141e-06
2	1	0	0	0	18.0593	-0.185569	-0.185102	0.00856143	2	-6.81504e-05	1.58474e-06
2	1	0	0	0	18.1393	-0.177573	-0.177115	0.00952421	2	-6.74239e-05	1.68688e-06
2	1	0	0	0	18.2193	-0.169576	-0.169114	0.0100764	2	-6.66346e-05	1.70406e-06
2	1	0	1	0	18.3303	-0.15848	-0.158036	0.00995317	2	-6.54973e-05	1.57296e-06
2	1	0	1	0	18.4103	-0.150484	-0.150033	0.00960956	2	-6.46917e-05	1.44175e-06
2	1	0	1	0	18.4903	-0.142487	-0.142044	0.00908551	2	-6.39218e-05	1.29055e-06
2	1	0	0	0	18.5701	-0.13449	-0.134027	0.00848558	2	-6.31983e-05	1.1373e-06
2	1	0	0	0	18.6501	-0.126493	-0.126032	0.00790583	2	-6.25211e-05	9.96387e-07
2	1	0	0	0	18.7301	-0.118497	-0.118051	0.00738566	2	-6.18884e-05	8.71881e-07
2	1	0	0	0	18.8101	-0.1105	-0.11006	0.00690656	2	-6.12947e-05	7.60135e-07
2	1	0	0	0	18.8901	-0.102503	-0.102051	0.00653175	2	-6.07349e-05	6.66569e-07
2	1	0	0	0	18.9701	-0.0945066	-0.094055	0.00625094	2	-6.0203e-05	5.87933e-07
2	1	0	1	0	19.0499	-0.0865099	-0.0860607	0.00595014	2	-5.96955e-05	5.12074e-07
2	1	0	1	0	19.1299	-0.0785132	-0.0780606	0.00575746	2	-5.92064e-05	4.49431e-07
2	1	0	1	0	19.2099	-0.0705165	-0.0700853	0.00556395	2	-5.87333e-05	3.89951e-07
2	1	0	1	0	19.2899	-0.0625197	-0.0620685	0.00543522	2	-5.82732e-05	3.37356e-07
2	1	0	1	0	19.3699	-0.054523	-0.0540428	0.00534053	2	-5.78235e-05	2.88617e-07
2	1	0	1	0	19.4499	-0.0465263	-0.0460747	0.00516985	2	-5.73828e-05	2.382e-07
2	1	0	0	0	19.5297	-0.0385296	-0.0380895	0.00510124	2	-5.69497e-05	1.94304e-07
2	1	0	0	0	19.6097	-0.0305329	-0.0300809	0.00503131	2	-5.65209e-05	1.51347e-07
2	1	0	0	0	19.6897	-0.0225361	-0.0220902	0.00501886	2	-5.60969e-05	1.10868e-07
2	1	0	0	0	19.7697	-0.0145394	-0.0140914	0.0049853	2	-5.56758e-05	7.02498e-08
2	1	0	0	0	19.8497	-0.0065427	-0.00609343	0.00495725	2	-5.52568e-05	3.02066e-08
2	1	0	0	0	19.9297	0.00145402	0.00191003	0.00497886	2	-5.48393e-05	9.50977e-09
2	1	0	1	0	19.9965	0.00815127	0.00861435	0.00502471	2	-5.44907e-05	4.32846e-08