File: TAP_Report/Data/MB_Suscept/6_pk_anti_3_C01_2.mpt
EC-Lab ASCII FILE
Nb header lines : 56

Cyclic Voltammetry

Run on channel : 1 (SN 0696)
User :
Electrode connection : standard
Ewe ctrl range : min = -2.50 V, max = 2.50 V
Ewe,I filtering : 50 kHz
Safety Limits :
	Do not start on E overload
Channel : Floating
Acquisition started on : 09/12/2016 16:25:16
Saved on :
	File : 6_pk_anti_3_C01.mpr
	Directory : \\userfs\st659\w2k\EC-Lab\Data\Meth_Blue 12-09-16\
	Host : 144.32.136.43
Device : SP-300 (SN 0182)
Address : USB
EC-Lab for windows v10.44 (software)
Internet server v10.44 (firmware)
Command interpretor v10.44 (firmware)
Electrode material :
Initial state :
Electrolyte :
Comments :
Cable : standard
Reference electrode : SCE Saturated Calomel Electrode (0.241 V)
Electrode surface area : 0.001 cm²
Characteristic mass : 0.001 g
Equivalent Weight : 0.000 g/eq.
Density : 0.000 g/cm3
Ei (V)              0.000
vs.                 Eoc
dE/dt               100.000
dE/dt unit          mV/s
E1 (V)              0.100
vs.                 Ref
Step percent        50
N                   10
E range min (V)     -2.500
E range max (V)     2.500
I Range             Auto
I Range min         Unset
I Range max         Unset
I Range init        Unset
Bandwidth           8
E2 (V)              -0.400
vs.                 Ref
nc cycles           2
Reverse Scan        1
Ef (V)              0.000
vs.                 Eoc

mode	ox/red	error	control changes	counter inc.	time/s	control/V	Ewe/V	<I>/mA	cycle number	(Q-Qo)/C	P/W
2	1	0	0	1	9.965	-0.0190608	-0.018614	0.00453538	2	-2.88486e-05	8.44216e-08
2	1	0	1	1	10.0405	-0.0115138	-0.0110589	0.00457646	2	-2.84804e-05	5.06105e-08
2	1	0	1	1	10.1205	-0.00351712	-0.00307279	0.00455948	2	-2.80931e-05	1.40103e-08
2	1	0	0	1	10.2315	0.00757835	0.00806037	0.00476295	2	-2.75711e-05	3.83912e-08
2	1	0	0	1	10.3115	0.0155751	0.0160513	0.0047532	2	-2.71893e-05	7.62952e-08
2	1	0	0	1	10.3915	0.0235718	0.0240539	0.0047667	2	-2.68079e-05	1.14658e-07
2	1	0	1	1	10.4713	0.0315685	0.0320538	0.0047741	2	-2.64264e-05	1.53028e-07
2	1	0	1	1	10.5513	0.0395653	0.0400303	0.00480564	2	-2.60433e-05	1.92372e-07
2	1	0	1	1	10.6313	0.047562	0.0480404	0.00480697	2	-2.5658e-05	2.30928e-07
2	1	0	1	1	10.7113	0.0555587	0.0560436	0.00486795	2	-2.52704e-05	2.72818e-07
2	1	0	1	1	10.7913	0.0635554	0.0640284	0.00489551	2	-2.48796e-05	3.13452e-07
2	1	0	1	1	10.8713	0.0715522	0.0720325	0.00493877	2	-2.44845e-05	3.55752e-07
2	1	0	0	1	10.9511	0.0795489	0.0800078	0.00502149	2	-2.40858e-05	4.01758e-07
2	1	0	0	1	11.0311	0.0875456	0.0880075	0.00510922	2	-2.36806e-05	4.49649e-07
2	1	0	0	1	11.1111	0.0955423	0.0960168	0.00518363	2	-2.32688e-05	4.97716e-07
2	0	0	0	1	11.1817	0.0974416	0.0978368	0.0018138	2	-2.29752e-05	1.77457e-07
2	0	0	0	1	11.2617	0.0894448	0.0898143	0.000688089	2	-2.28845e-05	6.18002e-08
2	0	0	0	1	11.3417	0.0814481	0.0818089	0.000142221	2	-2.28533e-05	1.16349e-08
2	0	0	1	1	11.4215	0.0734514	0.0738336	-0.000215548	2	-2.28574e-05	1.59147e-08
2	0	0	0	1	11.5325	0.0623559	0.0627225	-0.000656429	2	-2.29005e-05	4.11729e-08
2	0	0	0	1	11.6125	0.0543592	0.0547265	-0.000773383	2	-2.29554e-05	4.23245e-08
2	0	0	0	1	11.6925	0.0463625	0.0467168	-0.000952063	2	-2.30247e-05	4.44774e-08
2	0	0	1	1	11.8035	0.035267	0.0356318	-0.00113593	2	-2.31401e-05	4.04751e-08
2	0	0	0	1	11.8833	0.0272703	0.0276453	-0.00124812	2	-2.3236e-05	3.45047e-08
2	0	0	0	1	11.9633	0.0192736	0.0196554	-0.00135162	2	-2.33408e-05	2.65667e-08
2	0	0	0	1	12.0433	0.0112768	0.0116661	-0.00145497	2	-2.34542e-05	1.69738e-08
2	0	0	0	1	12.1233	0.0032801	0.0036489	-0.00155076	2	-2.3575e-05	5.65856e-09
2	0	0	0	1	12.2033	-0.00471663	-0.00434862	-0.00164064	2	-2.37031e-05	7.13454e-09
2	0	0	0	1	12.2833	-0.0127134	-0.0123464	-0.00171297	2	-2.38376e-05	2.11489e-08
2	0	0	1	1	12.3631	-0.0207101	-0.0203341	-0.00179524	2	-2.39783e-05	3.65047e-08
2	0	0	1	1	12.4431	-0.0287068	-0.0283332	-0.0018666	2	-2.41252e-05	5.28866e-08
2	0	0	1	1	12.5231	-0.0367035	-0.0363137	-0.00194742	2	-2.42782e-05	7.07182e-08
2	0	0	1	1	12.6031	-0.0447003	-0.0443187	-0.00201143	2	-2.44372e-05	8.91437e-08
2	0	0	1	1	12.6831	-0.052697	-0.0523128	-0.00209549	2	-2.46019e-05	1.09621e-07
2	0	0	1	1	12.7631	-0.0606937	-0.0603059	-0.00216592	2	-2.47725e-05	1.30618e-07
2	0	0	0	1	12.8429	-0.0686905	-0.0683204	-0.00227794	2	-2.49492e-05	1.5563e-07
2	0	0	0	1	12.9229	-0.0766872	-0.0763041	-0.00232898	2	-2.51328e-05	1.77711e-07
2	0	0	0	1	13.0029	-0.0846839	-0.0843051	-0.00242133	2	-2.53229e-05	2.0413e-07
2	0	0	0	1	13.0829	-0.0926806	-0.0923015	-0.00251918	2	-2.55211e-05	2.32524e-07
2	0	0	0	1	13.1629	-0.100677	-0.100301	-0.00264813	2	-2.57278e-05	2.65609e-07
2	0	0	0	1	13.2429	-0.108674	-0.108297	-0.00278254	2	-2.59451e-05	3.01342e-07
2	0	0	0	1	13.3228	-0.116662	-0.116306	-0.00297213	2	-2.61752e-05	3.45675e-07
2	0	0	1	1	13.4027	-0.124668	-0.124302	-0.00320951	2	-2.64222e-05	3.98948e-07
2	0	0	1	1	13.4827	-0.132664	-0.132283	-0.00353069	2	-2.66914e-05	4.67051e-07
2	0	0	1	1	13.5627	-0.140661	-0.140297	-0.00396837	2	-2.6991e-05	5.5675e-07
2	0	0	1	1	13.6427	-0.148658	-0.148286	-0.00456063	2	-2.73315e-05	6.76279e-07
2	0	0	1	1	13.7227	-0.156654	-0.156292	-0.00534909	2	-2.77267e-05	8.3602e-07
2	0	0	1	1	13.8027	-0.164651	-0.164305	-0.00630872	2	-2.81915e-05	1.03656e-06
2	0	0	0	1	13.8825	-0.172648	-0.172314	-0.00743523	2	-2.87409e-05	1.28119e-06
2	0	0	0	1	13.9625	-0.180645	-0.180302	-0.00866544	2	-2.93859e-05	1.56239e-06
2	0	0	0	1	14.0425	-0.188641	-0.188301	-0.00983565	2	-3.01276e-05	1.85206e-06
2	0	0	1	1	14.1535	-0.199737	-0.199361	-0.0109634	2	-3.12962e-05	2.18567e-06
2	0	0	1	1	14.2335	-0.207734	-0.207383	-0.0117005	2	-3.22245e-05	2.42649e-06
2	0	0	0	1	14.3133	-0.21573	-0.21538	-0.0122297	2	-3.31999e-05	2.63404e-06
2	0	0	0	1	14.3933	-0.223727	-0.223377	-0.0125021	2	-3.42103e-05	2.79268e-06
2	0	0	0	1	14.4733	-0.231724	-0.231353	-0.0126095	2	-3.52379e-05	2.91725e-06
2	0	0	0	1	14.5533	-0.239721	-0.239364	-0.0126566	2	-3.62719e-05	3.02953e-06
2	0	0	0	1	14.6333	-0.247717	-0.247365	-0.0126255	2	-3.73056e-05	3.12311e-06
2	0	0	0	1	14.7133	-0.255714	-0.255363	-0.0125605	2	-3.83329e-05	3.20748e-06
2	0	0	0	1	14.7932	-0.263708	-0.263341	-0.0124371	2	-3.93501e-05	3.27519e-06
2	0	0	1	1	14.8731	-0.271707	-0.271367	-0.0122858	2	-4.0358e-05	3.33396e-06
2	0	0	1	1	14.9531	-0.279704	-0.279349	-0.0121272	2	-4.13563e-05	3.38772e-06
2	0	0	1	1	15.0331	-0.287701	-0.287345	-0.0120616	2	-4.23453e-05	3.46586e-06
2	0	0	1	1	15.1131	-0.295698	-0.29535	-0.0119485	2	-4.33262e-05	3.52898e-06
2	0	0	1	1	15.1931	-0.303694	-0.303343	-0.0119189	2	-4.43007e-05	3.61551e-06
2	0	0	1	1	15.2731	-0.311691	-0.311355	-0.0118147	2	-4.52709e-05	3.67855e-06
2	0	0	0	1	15.3529	-0.319688	-0.319354	-0.0118422	2	-4.62365e-05	3.78186e-06
2	0	0	0	1	15.4329	-0.327685	-0.327342	-0.011824	2	-4.72038e-05	3.8705e-06
2	0	0	0	1	15.5129	-0.335681	-0.335327	-0.0118793	2	-4.8173e-05	3.98345e-06
2	0	0	0	1	15.5929	-0.343678	-0.343323	-0.0119477	2	-4.91459e-05	4.10193e-06
2	0	0	0	1	15.6729	-0.351675	-0.351322	-0.0120792	2	-5.01254e-05	4.2437e-06
2	0	0	0	1	15.7529	-0.359671	-0.359332	-0.0121421	2	-5.11133e-05	4.36304e-06
2	0	0	1	1	15.8327	-0.367668	-0.367301	-0.0122841	2	-5.21098e-05	4.51197e-06
2	0	0	1	1	15.9127	-0.375665	-0.375337	-0.0124801	2	-5.31215e-05	4.68424e-06
2	0	0	1	1	15.9927	-0.383662	-0.383314	-0.0126704	2	-5.41479e-05	4.85673e-06
2	0	0	1	1	16.0727	-0.391658	-0.391297	-0.0129257	2	-5.51916e-05	5.05778e-06
2	0	0	1	1	16.1517	-0.399555	-0.399204	-0.0131653	2	-5.62418e-05	5.25563e-06
2	1	0	0	0	16.2221	-0.393458	-0.393049	-0.00869493	2	-5.69186e-05	3.41754e-06
2	1	0	0	0	16.3021	-0.385461	-0.385057	-0.0075181	2	-5.75447e-05	2.8949e-06
2	1	0	0	0	16.3821	-0.377464	-0.377042	-0.00672427	2	-5.80937e-05	2.53533e-06
2	1	0	0	0	16.4621	-0.369467	-0.36905	-0.0060111	2	-5.85825e-05	2.2184e-06
2	1	0	0	0	16.542	-0.361466	-0.361056	-0.00542192	2	-5.90193e-05	1.95761e-06
2	1	0	0	0	16.6529	-0.350375	-0.349962	-0.00448663	2	-5.95568e-05	1.57015e-06
2	1	0	0	0	16.7329	-0.342379	-0.341971	-0.00402806	2	-5.9896e-05	1.37748e-06
2	1	0	0	0	16.8129	-0.334382	-0.333972	-0.00357956	2	-6.01993e-05	1.19547e-06
2	1	0	0	0	16.8929	-0.326385	-0.325972	-0.00318277	2	-6.04692e-05	1.0375e-06
2	1	0	0	0	16.9729	-0.318388	-0.317989	-0.00278775	2	-6.07077e-05	8.86472e-07
2	1	0	1	0	17.0527	-0.310392	-0.309991	-0.00243806	2	-6.09159e-05	7.55777e-07
2	1	0	1	0	17.1327	-0.302395	-0.301997	-0.00209757	2	-6.10962e-05	6.33459e-07
2	1	0	1	0	17.2127	-0.294398	-0.293993	-0.00175665	2	-6.12493e-05	5.16442e-07
2	1	0	1	0	17.2927	-0.286401	-0.285987	-0.00141671	2	-6.13754e-05	4.05161e-07
2	1	0	1	0	17.3727	-0.278405	-0.277982	-0.00108374	2	-6.14744e-05	3.0126e-07
2	1	0	1	0	17.4527	-0.270408	-0.270004	-0.000717606	2	-6.15458e-05	1.93757e-07
2	1	0	0	0	17.5325	-0.262411	-0.261993	-0.000334562	2	-6.15872e-05	8.76528e-08
2	1	0	0	0	17.6125	-0.254414	-0.254001	8.61677e-05	2	-6.15967e-05	2.18867e-08
2	1	0	0	0	17.6925	-0.246418	-0.246006	0.000564719	2	-6.15696e-05	1.38924e-07
2	1	0	0	0	17.7725	-0.238421	-0.238004	0.00117022	2	-6.14993e-05	2.78516e-07
2	1	0	0	0	17.8525	-0.230424	-0.230018	0.00188585	2	-6.13771e-05	4.33779e-07
2	1	0	0	0	17.9325	-0.222428	-0.222019	0.0027621	2	-6.11915e-05	6.13238e-07
2	1	0	1	0	18.0123	-0.214431	-0.214013	0.00384402	2	-6.09285e-05	8.22669e-07
2	1	0	1	0	18.0923	-0.206434	-0.206022	0.00508147	2	-6.05725e-05	1.04689e-06
2	1	0	1	0	18.1723	-0.198437	-0.198001	0.00642348	2	-6.01119e-05	1.27185e-06
2	1	0	1	0	18.2523	-0.190441	-0.189991	0.00779494	2	-5.95423e-05	1.48097e-06
2	1	0	1	0	18.3323	-0.182444	-0.18199	0.00893587	2	-5.88708e-05	1.62624e-06
2	1	0	1	0	18.4123	-0.174447	-0.173983	0.00978425	2	-5.81186e-05	1.7023e-06
2	1	0	1	0	18.4922	-0.16646	-0.165988	0.0101767	2	-5.7318e-05	1.68922e-06
2	1	0	1	0	18.6031	-0.155355	-0.154917	0.00985826	2	-5.61834e-05	1.52721e-06
2	1	0	1	0	18.6831	-0.147358	-0.146896	0.00942007	2	-5.53912e-05	1.38377e-06
2	1	0	1	0	18.7631	-0.139362	-0.138903	0.00885801	2	-5.46392e-05	1.23041e-06
2	1	0	1	0	18.8431	-0.131365	-0.13091	0.00827102	2	-5.39342e-05	1.08276e-06
2	1	0	1	0	18.9231	-0.123368	-0.122927	0.00767151	2	-5.32762e-05	9.43034e-07
2	1	0	0	0	19.0029	-0.115371	-0.114928	0.00720904	2	-5.26624e-05	8.28519e-07
2	1	0	0	0	19.0829	-0.107375	-0.106924	0.00673278	2	-5.20851e-05	7.19898e-07
2	1	0	0	0	19.1629	-0.0993779	-0.0989304	0.00634861	2	-5.15401e-05	6.28071e-07
2	1	0	0	0	19.2429	-0.0913812	-0.0909335	0.00609069	2	-5.10223e-05	5.53848e-07
2	1	0	0	0	19.3229	-0.0833845	-0.0829296	0.00574598	2	-5.05273e-05	4.76512e-07
2	1	0	0	0	19.4029	-0.0753877	-0.0749412	0.00556598	2	-5.00515e-05	4.17121e-07
2	1	0	1	0	19.4827	-0.067391	-0.0669405	0.00538373	2	-4.95922e-05	3.6039e-07
2	1	0	1	0	19.5627	-0.0593943	-0.0589446	0.00528076	2	-4.91449e-05	3.11272e-07
2	1	0	1	0	19.6427	-0.0513975	-0.0509509	0.00512866	2	-4.87086e-05	2.6131e-07
2	1	0	1	0	19.7227	-0.0434008	-0.0429528	0.00503115	2	-4.82814e-05	2.16102e-07
2	1	0	1	0	19.8027	-0.0354041	-0.0349699	0.00495057	2	-4.78613e-05	1.73121e-07
2	1	0	1	0	19.8827	-0.0274073	-0.0269386	0.00490505	2	-4.74471e-05	1.32135e-07
2	1	0	1	0	19.9616	-0.0195135	-0.0190724	0.00485274	2	-4.70435e-05	9.25535e-08