File: TAP_Report/Data/MB_Suscept/6_pk_anti_2_C01_2.mpt
EC-Lab ASCII FILE
Nb header lines : 56

Cyclic Voltammetry

Run on channel : 1 (SN 0696)
User :
Electrode connection : standard
Ewe ctrl range : min = -2.50 V, max = 2.50 V
Ewe,I filtering : 50 kHz
Safety Limits :
	Do not start on E overload
Channel : Floating
Acquisition started on : 09/12/2016 16:23:20
Saved on :
	File : 6_pk_anti_2_C01.mpr
	Directory : \\userfs\st659\w2k\EC-Lab\Data\Meth_Blue 12-09-16\
	Host : 144.32.136.43
Device : SP-300 (SN 0182)
Address : USB
EC-Lab for windows v10.44 (software)
Internet server v10.44 (firmware)
Command interpretor v10.44 (firmware)
Electrode material :
Initial state :
Electrolyte :
Comments :
Cable : standard
Reference electrode : SCE Saturated Calomel Electrode (0.241 V)
Electrode surface area : 0.001 cm²
Characteristic mass : 0.001 g
Equivalent Weight : 0.000 g/eq.
Density : 0.000 g/cm3
Ei (V)              0.000
vs.                 Eoc
dE/dt               100.000
dE/dt unit          mV/s
E1 (V)              0.100
vs.                 Ref
Step percent        50
N                   10
E range min (V)     -2.500
E range max (V)     2.500
I Range             Auto
I Range min         Unset
I Range max         Unset
I Range init        Unset
Bandwidth           8
E2 (V)              -0.400
vs.                 Ref
nc cycles           2
Reverse Scan        1
Ef (V)              0.000
vs.                 Eoc

mode	ox/red	error	control changes	counter inc.	time/s	control/V	Ewe/V	<I>/mA	cycle number	(Q-Qo)/C	P/W
2	1	0	1	1	9.9658	-0.00516757	-0.00473901	0.00459468	2	-3.28611e-05	2.17743e-08
2	1	0	0	1	10.0413	0.00237933	0.00281699	0.00458775	2	-3.24907e-05	1.29236e-08
2	1	0	0	1	10.1213	0.010376	0.0108183	0.00464323	2	-3.20991e-05	5.0232e-08
2	1	0	0	1	10.2013	0.0183727	0.0188364	0.00465562	2	-3.17076e-05	8.76952e-08
2	1	0	0	1	10.2813	0.0263695	0.0268045	0.00462034	2	-3.13159e-05	1.23846e-07
2	1	0	0	1	10.3613	0.0343662	0.0348056	0.00462882	2	-3.09231e-05	1.61109e-07
2	1	0	0	1	10.4413	0.0423629	0.0428014	0.0046768	2	-3.05283e-05	2.00174e-07
2	1	0	1	1	10.5211	0.0503596	0.0508	0.0046998	2	-3.01319e-05	2.3875e-07
2	1	0	1	1	10.6011	0.0583563	0.0588041	0.00474749	2	-2.97318e-05	2.79172e-07
2	1	0	1	1	10.6811	0.066353	0.0668046	0.00480256	2	-2.93281e-05	3.20833e-07
2	1	0	1	1	10.7611	0.0743497	0.0747848	0.00487513	2	-2.89201e-05	3.64585e-07
2	1	0	1	1	10.8411	0.0823464	0.0827963	0.0048965	2	-2.8507e-05	4.05412e-07
2	1	0	1	1	10.9211	0.0903431	0.0907855	0.00502005	2	-2.80881e-05	4.55748e-07
2	1	0	0	1	11.0009	0.0983398	0.0987833	0.00509	2	-2.7663e-05	5.02807e-07
2	0	0	0	1	11.0785	0.0939416	0.0943219	0.0014092	2	-2.74472e-05	1.32918e-07
2	0	0	1	1	11.1733	0.0844456	0.0848121	0.000412656	2	-2.73629e-05	3.49982e-08
2	0	0	1	1	11.2533	0.0764488	0.0768135	-4.14627e-05	2	-2.73502e-05	3.1849e-09
2	0	0	1	1	11.3333	0.0684522	0.0688437	-0.000374645	2	-2.73675e-05	2.5792e-08
2	0	0	1	1	11.4133	0.0604554	0.0608218	-0.000609437	2	-2.74081e-05	3.70671e-08
2	0	0	1	1	11.4933	0.0524587	0.0528349	-0.000829545	2	-2.74667e-05	4.38289e-08
2	0	0	1	1	11.5733	0.044462	0.0448143	-0.00100115	2	-2.75405e-05	4.48657e-08
2	0	0	0	1	11.6531	0.0364653	0.0368238	-0.00116347	2	-2.76276e-05	4.28434e-08
2	0	0	0	1	11.7331	0.0284686	0.0288277	-0.0012788	2	-2.77257e-05	3.68648e-08
2	0	0	0	1	11.8131	0.0204719	0.0208535	-0.00139678	2	-2.78337e-05	2.91278e-08
2	0	0	0	1	11.8931	0.0124752	0.0128314	-0.00151003	2	-2.79509e-05	1.93757e-08
2	0	0	0	1	11.9731	0.00447846	0.00484255	-0.00159754	2	-2.80763e-05	7.73618e-09
2	0	0	0	1	12.0531	-0.00351825	-0.0031624	-0.00169404	2	-2.82096e-05	5.35722e-09
2	0	0	1	1	12.1329	-0.011515	-0.0111546	-0.00180198	2	-2.835e-05	2.01004e-08
2	0	0	1	1	12.2129	-0.0195117	-0.0191424	-0.00187237	2	-2.84974e-05	3.58417e-08
2	0	0	1	1	12.2929	-0.0275084	-0.0271385	-0.00196614	2	-2.86515e-05	5.33581e-08
2	0	0	1	1	12.3729	-0.0355051	-0.0351474	-0.00202783	2	-2.88119e-05	7.1273e-08
2	0	0	1	1	12.4529	-0.0435018	-0.0431545	-0.00210862	2	-2.89791e-05	9.09964e-08
2	0	0	1	1	12.5329	-0.0514985	-0.0511399	-0.00218609	2	-2.91526e-05	1.11797e-07
2	0	0	0	1	12.6127	-0.0594952	-0.0591521	-0.00228439	2	-2.93323e-05	1.35126e-07
2	0	0	0	1	12.6927	-0.067492	-0.0671422	-0.00236421	2	-2.9519e-05	1.58738e-07
2	0	0	0	1	12.7727	-0.0754887	-0.0751236	-0.00245071	2	-2.97126e-05	1.84106e-07
2	0	0	0	1	12.8527	-0.0834854	-0.0831199	-0.00255311	2	-2.99134e-05	2.12214e-07
2	0	0	0	1	12.9327	-0.0914821	-0.0911248	-0.00266257	2	-3.01226e-05	2.42626e-07
2	0	0	0	1	13.0127	-0.0994788	-0.09912	-0.00278143	2	-3.03407e-05	2.75696e-07
2	0	0	1	1	13.0925	-0.107476	-0.107115	-0.00292834	2	-3.05693e-05	3.13669e-07
2	0	0	1	1	13.1725	-0.115472	-0.115112	-0.00310722	2	-3.08113e-05	3.57677e-07
2	0	0	1	1	13.2525	-0.123469	-0.123109	-0.00334555	2	-3.10694e-05	4.11869e-07
2	0	0	1	1	13.3325	-0.131466	-0.131113	-0.00366109	2	-3.13491e-05	4.80018e-07
2	0	0	1	1	13.4125	-0.139462	-0.139106	-0.00407532	2	-3.16576e-05	5.66901e-07
2	0	0	1	1	13.4925	-0.147459	-0.147119	-0.00463612	2	-3.20052e-05	6.82061e-07
2	0	0	0	1	13.5723	-0.155456	-0.15511	-0.00536512	2	-3.24043e-05	8.32182e-07
2	0	0	0	1	13.6523	-0.163453	-0.163111	-0.00630977	2	-3.28708e-05	1.02919e-06
2	0	0	0	1	13.7323	-0.171449	-0.171121	-0.00742182	2	-3.34199e-05	1.27003e-06
2	0	0	0	1	13.8123	-0.179446	-0.179111	-0.00863895	2	-3.40628e-05	1.54733e-06
2	0	0	0	1	13.8923	-0.187443	-0.187116	-0.00985438	2	-3.4804e-05	1.84391e-06
2	0	0	1	1	14.0033	-0.198538	-0.198175	-0.0110312	2	-3.59761e-05	2.18611e-06
2	0	0	0	1	14.0831	-0.206535	-0.206181	-0.0118877	2	-3.69132e-05	2.45102e-06
2	0	0	0	1	14.1631	-0.214532	-0.214179	-0.0124235	2	-3.79076e-05	2.66086e-06
2	0	0	0	1	14.2431	-0.222528	-0.222177	-0.0128063	2	-3.89404e-05	2.84527e-06
2	0	0	0	1	14.3231	-0.230525	-0.230172	-0.0130549	2	-3.99963e-05	3.00487e-06
2	0	0	0	1	14.4031	-0.238522	-0.238169	-0.0131041	2	-4.10639e-05	3.12099e-06
2	0	0	0	1	14.4831	-0.246518	-0.246165	-0.0131195	2	-4.21359e-05	3.22957e-06
2	0	0	1	1	14.5629	-0.254515	-0.254165	-0.0130885	2	-4.32039e-05	3.32663e-06
2	0	0	1	1	14.6429	-0.262512	-0.262147	-0.0130358	2	-4.42695e-05	3.4173e-06
2	0	0	1	1	14.7229	-0.270509	-0.27016	-0.0129552	2	-4.5329e-05	3.49996e-06
2	0	0	1	1	14.8029	-0.278505	-0.278154	-0.0128533	2	-4.63819e-05	3.57519e-06
2	0	0	1	1	14.8829	-0.286502	-0.28614	-0.012794	2	-4.74288e-05	3.66089e-06
2	0	0	1	1	14.9629	-0.294499	-0.294166	-0.0127345	2	-4.84714e-05	3.74606e-06
2	0	0	0	1	15.0427	-0.302495	-0.302154	-0.0127418	2	-4.95087e-05	3.84997e-06
2	0	0	0	1	15.1227	-0.310492	-0.310166	-0.0127087	2	-5.05479e-05	3.9418e-06
2	0	0	0	1	15.2027	-0.318489	-0.318137	-0.0127482	2	-5.15883e-05	4.05569e-06
2	0	0	0	1	15.2827	-0.326486	-0.32614	-0.0128389	2	-5.26325e-05	4.18727e-06
2	0	0	0	1	15.3627	-0.334482	-0.334125	-0.0129435	2	-5.36829e-05	4.32476e-06
2	0	0	0	1	15.4427	-0.342479	-0.342132	-0.0130662	2	-5.47419e-05	4.47038e-06
2	0	0	1	1	15.5225	-0.350476	-0.350116	-0.013224	2	-5.581e-05	4.62992e-06
2	0	0	1	1	15.6025	-0.358472	-0.358133	-0.0134117	2	-5.68942e-05	4.80316e-06
2	0	0	1	1	15.6825	-0.366469	-0.366129	-0.0136413	2	-5.79946e-05	4.99446e-06
2	0	0	1	1	15.7625	-0.374466	-0.374126	-0.0138471	2	-5.91141e-05	5.18055e-06
2	0	0	1	1	15.8425	-0.382463	-0.382122	-0.0141733	2	-6.02549e-05	5.41593e-06
2	0	0	1	1	15.9225	-0.390459	-0.390113	-0.0144681	2	-6.14196e-05	5.64419e-06
2	0	0	0	1	16.0023	-0.398456	-0.398128	-0.0148396	2	-6.26085e-05	5.90808e-06
2	1	0	1	0	16.0738	-0.394448	-0.394053	-0.0105007	2	-6.34705e-05	4.13783e-06
2	1	0	0	0	16.1537	-0.386461	-0.386069	-0.0092131	2	-6.42364e-05	3.55689e-06
2	1	0	0	0	16.2337	-0.378464	-0.378056	-0.00827273	2	-6.49145e-05	3.12756e-06
2	1	0	0	0	16.3137	-0.370467	-0.370072	-0.00745114	2	-6.5523e-05	2.75746e-06
2	1	0	0	0	16.3937	-0.362471	-0.36208	-0.00679525	2	-6.60713e-05	2.46042e-06
2	1	0	0	0	16.4737	-0.354474	-0.354102	-0.00614423	2	-6.65669e-05	2.17569e-06
2	1	0	0	0	16.5536	-0.346484	-0.3461	-0.005534	2	-6.70139e-05	1.91532e-06
2	1	0	1	0	16.6335	-0.338481	-0.338077	-0.0050335	2	-6.74166e-05	1.70171e-06
2	1	0	0	0	16.7445	-0.327385	-0.326998	-0.00415137	2	-6.79162e-05	1.35749e-06
2	1	0	0	0	16.8245	-0.319388	-0.319011	-0.00369727	2	-6.82293e-05	1.17947e-06
2	1	0	0	0	16.9045	-0.311392	-0.311016	-0.00327699	2	-6.85073e-05	1.0192e-06
2	1	0	0	0	16.9845	-0.303395	-0.303013	-0.00285585	2	-6.87517e-05	8.6536e-07
2	1	0	1	0	17.0643	-0.295398	-0.295004	-0.00246185	2	-6.89631e-05	7.26255e-07
2	1	0	1	0	17.1443	-0.287402	-0.286993	-0.00207367	2	-6.91435e-05	5.95129e-07
2	1	0	1	0	17.2243	-0.279405	-0.279015	-0.00167922	2	-6.92932e-05	4.68528e-07
2	1	0	1	0	17.3043	-0.271408	-0.271017	-0.0012841	2	-6.94109e-05	3.48014e-07
2	1	0	1	0	17.3843	-0.263411	-0.262996	-0.000862333	2	-6.94953e-05	2.2679e-07
2	1	0	1	0	17.4643	-0.255415	-0.255017	-0.000384866	2	-6.95446e-05	9.81473e-08
2	1	0	0	0	17.5441	-0.247418	-0.247015	0.000160846	2	-6.95538e-05	3.97313e-08
2	1	0	0	0	17.6241	-0.239421	-0.239031	0.000760824	2	-6.95171e-05	1.81861e-07
2	1	0	0	0	17.7041	-0.231425	-0.23102	0.00151083	2	-6.94268e-05	3.49031e-07
2	1	0	0	0	17.7841	-0.223428	-0.223035	0.00240322	2	-6.92715e-05	5.36002e-07
2	1	0	0	0	17.8641	-0.215431	-0.215037	0.00344857	2	-6.90381e-05	7.41568e-07
2	1	0	0	0	17.9441	-0.207434	-0.207031	0.00468417	2	-6.87123e-05	9.6977e-07
2	1	0	1	0	18.0239	-0.199438	-0.199005	0.00606043	2	-6.82831e-05	1.20605e-06
2	1	0	1	0	18.1039	-0.191441	-0.191013	0.00739254	2	-6.7744e-05	1.41207e-06
2	1	0	1	0	18.1839	-0.183444	-0.182975	0.00858107	2	-6.71024e-05	1.57013e-06
2	1	0	1	0	18.2639	-0.175448	-0.174997	0.00944364	2	-6.63785e-05	1.65261e-06
2	1	0	1	0	18.3439	-0.167451	-0.166996	0.00987799	2	-6.5602e-05	1.64959e-06
2	1	0	1	0	18.4239	-0.159454	-0.15898	0.00991486	2	-6.48067e-05	1.57626e-06
2	1	0	1	0	18.5038	-0.151455	-0.150981	0.00967475	2	-6.40237e-05	1.4607e-06
2	1	0	0	0	18.5837	-0.143461	-0.142991	0.00914531	2	-6.32723e-05	1.30769e-06
2	1	0	0	0	18.6637	-0.135464	-0.134979	0.00858036	2	-6.25628e-05	1.15817e-06
2	1	0	0	0	18.7437	-0.127467	-0.126988	0.00801408	2	-6.18989e-05	1.01769e-06
2	1	0	0	0	18.8237	-0.119471	-0.119019	0.00750168	2	-6.12784e-05	8.92845e-07
2	1	0	0	0	18.9037	-0.111474	-0.111013	0.00704925	2	-6.06963e-05	7.82556e-07
2	1	0	0	0	18.9837	-0.103477	-0.103007	0.00666837	2	-6.01473e-05	6.86887e-07
2	1	0	1	0	19.0635	-0.0954805	-0.0949988	0.00634962	2	-5.9627e-05	6.03206e-07
2	1	0	1	0	19.1435	-0.0874837	-0.0869934	0.0061016	2	-5.91291e-05	5.30799e-07
2	1	0	1	0	19.2235	-0.079487	-0.0790277	0.00587061	2	-5.86509e-05	4.63941e-07
2	1	0	1	0	19.3035	-0.0714903	-0.0710303	0.00568497	2	-5.81886e-05	4.03805e-07
2	1	0	1	0	19.3835	-0.0634936	-0.0630532	0.00554778	2	-5.77395e-05	3.49805e-07
2	1	0	1	0	19.4635	-0.0554969	-0.0550518	0.00541273	2	-5.73009e-05	2.9798e-07
2	1	0	0	0	19.5433	-0.0475002	-0.0470547	0.00531909	2	-5.6872e-05	2.50288e-07
2	1	0	0	0	19.6233	-0.0395035	-0.039047	0.00523526	2	-5.64494e-05	2.04421e-07
2	1	0	0	0	19.7033	-0.0315068	-0.0310558	0.00517312	2	-5.60326e-05	1.60656e-07
2	1	0	0	0	19.7833	-0.02351	-0.0230615	0.00512011	2	-5.56203e-05	1.18077e-07
2	1	0	0	0	19.8633	-0.0155133	-0.0150625	0.00509015	2	-5.52116e-05	7.66702e-08
2	1	0	0	0	19.9433	-0.00751661	-0.00707214	0.00505833	2	-5.4805e-05	3.57732e-08
2	1	0	0	0	19.9622	-0.00561739	-0.00517027	0.00509899	2	-5.47091e-05	2.63631e-08