File: TAP_Report/Data/MB_Suscept/6_pk_noanti_3_C01_2.mpt
EC-Lab ASCII FILE
Nb header lines : 56

Cyclic Voltammetry

Run on channel : 1 (SN 0696)
User :
Electrode connection : standard
Ewe ctrl range : min = -2.50 V, max = 2.50 V
Ewe,I filtering : 50 kHz
Safety Limits :
	Do not start on E overload
Channel : Floating
Acquisition started on : 09/12/2016 16:31:23
Saved on :
	File : 6_pk_noanti_3_C01.mpr
	Directory : \\userfs\st659\w2k\EC-Lab\Data\Meth_Blue 12-09-16\
	Host : 144.32.136.43
Device : SP-300 (SN 0182)
Address : USB
EC-Lab for windows v10.44 (software)
Internet server v10.44 (firmware)
Command interpretor v10.44 (firmware)
Electrode material :
Initial state :
Electrolyte :
Comments :
Cable : standard
Reference electrode : SCE Saturated Calomel Electrode (0.241 V)
Electrode surface area : 0.001 cm²
Characteristic mass : 0.001 g
Equivalent Weight : 0.000 g/eq.
Density : 0.000 g/cm3
Ei (V)              0.000
vs.                 Eoc
dE/dt               100.000
dE/dt unit          mV/s
E1 (V)              0.100
vs.                 Ref
Step percent        50
N                   10
E range min (V)     -2.500
E range max (V)     2.500
I Range             Auto
I Range min         Unset
I Range max         Unset
I Range init        Unset
Bandwidth           8
E2 (V)              -0.400
vs.                 Ref
nc cycles           2
Reverse Scan        1
Ef (V)              0.000
vs.                 Eoc

mode	ox/red	error	control changes	counter inc.	time/s	control/V	Ewe/V	<I>/mA	cycle number	(Q-Qo)/C	P/W
2	1	0	0	1	9.9648	-0.0256793	-0.0252478	0.00472379	2	-2.89044e-05	1.19265e-07
2	1	0	1	1	10.0403	-0.0181324	-0.0176882	0.00473164	2	-2.85256e-05	8.3694e-08
2	1	0	1	1	10.1203	-0.0101357	-0.00969106	0.00468232	2	-2.81278e-05	4.53767e-08
2	1	0	1	1	10.2003	-0.00213897	-0.00169565	0.0046577	2	-2.77328e-05	7.89784e-09
2	1	0	1	1	10.2803	0.00585774	0.00630866	0.00465258	2	-2.73395e-05	2.93515e-08
2	1	0	1	1	10.3603	0.0138545	0.0143238	0.00465658	2	-2.69474e-05	6.66997e-08
2	1	0	1	1	10.4403	0.0218512	0.0223111	0.00459672	2	-2.65557e-05	1.02558e-07
2	1	0	0	1	10.5201	0.0298479	0.030301	0.00464585	2	-2.61643e-05	1.40774e-07
2	1	0	0	1	10.6001	0.0378446	0.0382918	0.00465217	2	-2.57709e-05	1.7814e-07
2	1	0	0	1	10.6801	0.0458413	0.0462838	0.00467806	2	-2.53755e-05	2.16518e-07
2	1	0	0	1	10.7601	0.053838	0.0542913	0.00475091	2	-2.49777e-05	2.57933e-07
2	1	0	0	1	10.8401	0.0618347	0.0622956	0.00475859	2	-2.45765e-05	2.96439e-07
2	1	0	0	1	10.9201	0.0698315	0.0702806	0.00482913	2	-2.41712e-05	3.39394e-07
2	1	0	1	1	10.9999	0.0778282	0.0782752	0.0048786	2	-2.37617e-05	3.81873e-07
2	1	0	1	1	11.0799	0.0858249	0.0862646	0.00497564	2	-2.33459e-05	4.29222e-07
2	1	0	1	1	11.1599	0.0938216	0.0942666	0.00506943	2	-2.29232e-05	4.77878e-07
2	0	0	0	1	11.2273	0.0994193	0.0998045	0.00312735	2	-2.25753e-05	3.12124e-07
2	0	0	0	1	11.3073	0.0914226	0.0918224	0.0012373	2	-2.24454e-05	1.13611e-07
2	0	0	1	1	11.4183	0.0803271	0.0807107	0.000183209	2	-2.23818e-05	1.47869e-08
2	0	0	1	1	11.4983	0.0723304	0.0727136	-0.000172271	2	-2.23832e-05	1.25264e-08
2	0	0	0	1	11.5781	0.0643337	0.0647143	-0.000439038	2	-2.24099e-05	2.84121e-08
2	0	0	0	1	11.6581	0.056337	0.0567162	-0.000672793	2	-2.24557e-05	3.81583e-08
2	0	0	0	1	11.7381	0.0483403	0.0487021	-0.000844743	2	-2.25175e-05	4.11408e-08
2	0	0	0	1	11.8181	0.0403436	0.0407167	-0.00100427	2	-2.25926e-05	4.08907e-08
2	0	0	0	1	11.8981	0.0323469	0.032723	-0.00113988	2	-2.26792e-05	3.73004e-08
2	0	0	0	1	11.9781	0.0243501	0.0247201	-0.00125329	2	-2.27758e-05	3.09815e-08
2	0	0	1	1	12.0579	0.0163534	0.016743	-0.00135896	2	-2.28816e-05	2.27531e-08
2	0	0	1	1	12.1379	0.00835672	0.00871152	-0.00146724	2	-2.29957e-05	1.27818e-08
2	0	0	1	1	12.2179	0.000357748	0.000707633	-0.00155893	2	-2.31174e-05	1.10315e-09
2	0	0	1	1	12.2979	-0.00763671	-0.00726616	-0.00164912	2	-2.32459e-05	1.19828e-08
2	0	0	1	1	12.3779	-0.0156334	-0.0152501	-0.00172008	2	-2.33813e-05	2.62314e-08
2	0	0	1	1	12.4579	-0.0236301	-0.0232657	-0.00180124	2	-2.35228e-05	4.1907e-08
2	0	0	0	1	12.5377	-0.0316269	-0.0312579	-0.00187566	2	-2.36704e-05	5.86291e-08
2	0	0	0	1	12.6177	-0.0396236	-0.0392546	-0.00194908	2	-2.38241e-05	7.65102e-08
2	0	0	0	1	12.6977	-0.0476203	-0.0472561	-0.00203738	2	-2.39837e-05	9.62787e-08
2	0	0	0	1	12.7777	-0.055617	-0.0552677	-0.00210068	2	-2.41494e-05	1.161e-07
2	0	0	0	1	12.8577	-0.0636137	-0.0632607	-0.00218642	2	-2.4321e-05	1.38315e-07
2	0	0	0	1	12.9377	-0.0716104	-0.0712542	-0.0022563	2	-2.44988e-05	1.60771e-07
2	0	0	1	1	13.0175	-0.0796072	-0.0792278	-0.00234348	2	-2.46832e-05	1.85669e-07
2	0	0	1	1	13.0975	-0.0876039	-0.0872232	-0.00244666	2	-2.48749e-05	2.13406e-07
2	0	0	1	1	13.1775	-0.0956006	-0.0952227	-0.00254707	2	-2.5075e-05	2.42539e-07
2	0	0	1	1	13.2575	-0.103597	-0.103256	-0.00267009	2	-2.52847e-05	2.75702e-07
2	0	0	1	1	13.3375	-0.111594	-0.111228	-0.00283272	2	-2.55056e-05	3.15078e-07
2	0	0	1	1	13.4175	-0.119591	-0.119246	-0.00305214	2	-2.57412e-05	3.63957e-07
2	0	0	0	1	13.4973	-0.127587	-0.127228	-0.0033081	2	-2.59952e-05	4.20882e-07
2	0	0	0	1	13.5773	-0.135584	-0.135218	-0.00368909	2	-2.62749e-05	4.98832e-07
2	0	0	0	1	13.6573	-0.143581	-0.143239	-0.00418624	2	-2.65896e-05	5.99632e-07
2	0	0	0	1	13.7373	-0.151578	-0.151237	-0.00485947	2	-2.69505e-05	7.34934e-07
2	0	0	0	1	13.8173	-0.159574	-0.159218	-0.00572376	2	-2.73732e-05	9.11322e-07
2	0	0	0	1	13.8973	-0.167571	-0.16723	-0.00680442	2	-2.78737e-05	1.1379e-06
2	0	0	1	1	13.9771	-0.175568	-0.175236	-0.00801676	2	-2.84654e-05	1.40482e-06
2	0	0	1	1	14.0571	-0.183564	-0.183235	-0.00928839	2	-2.91587e-05	1.70196e-06
2	0	0	0	1	14.1681	-0.19466	-0.194296	-0.0105902	2	-3.02771e-05	2.05763e-06
2	0	0	0	1	14.2481	-0.202657	-0.2023	-0.0115663	2	-3.11853e-05	2.33987e-06
2	0	0	0	1	14.3281	-0.210653	-0.210294	-0.0121924	2	-3.21575e-05	2.56399e-06
2	0	0	0	1	14.4081	-0.21865	-0.218311	-0.0126545	2	-3.31737e-05	2.76263e-06
2	0	0	1	1	14.4879	-0.226647	-0.226299	-0.0129023	2	-3.42148e-05	2.91979e-06
2	0	0	1	1	14.5679	-0.234644	-0.234289	-0.0129606	2	-3.52709e-05	3.03651e-06
2	0	0	1	1	14.6479	-0.24264	-0.242302	-0.0129835	2	-3.63296e-05	3.14593e-06
2	0	0	1	1	14.7279	-0.250637	-0.250275	-0.0128881	2	-3.7384e-05	3.22556e-06
2	0	0	1	1	14.8079	-0.258634	-0.258285	-0.0127272	2	-3.84296e-05	3.28724e-06
2	0	0	1	1	14.8879	-0.26663	-0.26627	-0.0126057	2	-3.94636e-05	3.35652e-06
2	0	0	0	1	14.9677	-0.274627	-0.274289	-0.0124447	2	-4.04842e-05	3.41345e-06
2	0	0	0	1	15.0477	-0.282624	-0.282271	-0.0123209	2	-4.14949e-05	3.47784e-06
2	0	0	0	1	15.1277	-0.290621	-0.290268	-0.0121965	2	-4.2495e-05	3.54026e-06
2	0	0	0	1	15.2077	-0.298617	-0.298273	-0.0120954	2	-4.34862e-05	3.60772e-06
2	0	0	0	1	15.2877	-0.306614	-0.30627	-0.0119876	2	-4.44702e-05	3.67146e-06
2	0	0	0	1	15.3677	-0.314611	-0.314264	-0.0119396	2	-4.54487e-05	3.75219e-06
2	0	0	1	1	15.4475	-0.322607	-0.322258	-0.0119456	2	-4.64224e-05	3.84957e-06
2	0	0	1	1	15.5275	-0.330604	-0.330246	-0.0118957	2	-4.73973e-05	3.92851e-06
2	0	0	1	1	15.6075	-0.338601	-0.338234	-0.0119364	2	-4.83732e-05	4.03728e-06
2	0	0	1	1	15.6875	-0.346598	-0.346243	-0.0120271	2	-4.93526e-05	4.16428e-06
2	0	0	1	1	15.7675	-0.354594	-0.354252	-0.0121319	2	-5.03378e-05	4.29775e-06
2	0	0	1	1	15.8475	-0.362591	-0.362242	-0.0122349	2	-5.13305e-05	4.43198e-06
2	0	0	0	1	15.9273	-0.370588	-0.370237	-0.0123408	2	-5.23311e-05	4.56903e-06
2	0	0	0	1	16.0073	-0.378584	-0.378235	-0.0125178	2	-5.33461e-05	4.73466e-06
2	0	0	0	1	16.0873	-0.386581	-0.386227	-0.0126951	2	-5.43753e-05	4.90318e-06
2	0	0	0	1	16.1673	-0.394578	-0.394211	-0.0129009	2	-5.54208e-05	5.08567e-06
2	1	0	0	0	16.2277	-0.399376	-0.398981	-0.0106684	2	-5.62057e-05	4.25651e-06
2	1	0	0	0	16.3077	-0.391379	-0.390972	-0.00828058	2	-5.69149e-05	3.23747e-06
2	1	0	0	0	16.3877	-0.383382	-0.382989	-0.00725638	2	-5.75123e-05	2.77911e-06
2	1	0	0	0	16.4677	-0.375386	-0.374985	-0.00647133	2	-5.80394e-05	2.42665e-06
2	1	0	0	0	16.5476	-0.367396	-0.366981	-0.00582581	2	-5.85089e-05	2.13796e-06
2	1	0	1	0	16.6275	-0.359392	-0.358986	-0.00526679	2	-5.89297e-05	1.8907e-06
2	1	0	0	0	16.7385	-0.348297	-0.347899	-0.00432739	2	-5.945e-05	1.50549e-06
2	1	0	0	0	16.8185	-0.3403	-0.339866	-0.00386443	2	-5.97773e-05	1.31339e-06
2	1	0	0	0	16.8985	-0.332303	-0.331892	-0.00347801	2	-6.00704e-05	1.15432e-06
2	1	0	0	0	16.9785	-0.324307	-0.323892	-0.00306965	2	-6.03312e-05	9.94233e-07
2	1	0	1	0	17.0583	-0.31631	-0.315906	-0.00269237	2	-6.05607e-05	8.50533e-07
2	1	0	1	0	17.1383	-0.308313	-0.307905	-0.00234461	2	-6.07619e-05	7.21918e-07
2	1	0	1	0	17.2183	-0.300317	-0.29991	-0.00201393	2	-6.09357e-05	6.03997e-07
2	1	0	1	0	17.2983	-0.29232	-0.291898	-0.00166047	2	-6.10822e-05	4.84689e-07
2	1	0	1	0	17.3783	-0.284323	-0.283899	-0.00134326	2	-6.1202e-05	3.8135e-07
2	1	0	1	0	17.4583	-0.276326	-0.275913	-0.00100179	2	-6.12947e-05	2.76407e-07
2	1	0	0	0	17.5381	-0.26833	-0.267926	-0.000617074	2	-6.13587e-05	1.6533e-07
2	1	0	0	0	17.6181	-0.260333	-0.259915	-0.00022016	2	-6.13923e-05	5.7223e-08
2	1	0	0	0	17.6981	-0.252336	-0.251919	0.000229183	2	-6.1392e-05	5.77355e-08
2	1	0	0	0	17.7781	-0.24434	-0.243906	0.000765837	2	-6.13525e-05	1.86792e-07
2	1	0	0	0	17.8581	-0.236343	-0.235901	0.00139657	2	-6.1266e-05	3.29451e-07
2	1	0	0	0	17.9381	-0.228346	-0.227938	0.00217937	2	-6.11231e-05	4.9676e-07
2	1	0	1	0	18.0179	-0.220349	-0.219933	0.00317844	2	-6.09105e-05	6.99042e-07
2	1	0	1	0	18.0979	-0.212353	-0.21192	0.00431646	2	-6.06119e-05	9.14743e-07
2	1	0	1	0	18.1779	-0.204356	-0.203923	0.00564387	2	-6.02145e-05	1.15091e-06
2	1	0	1	0	18.2579	-0.196359	-0.195916	0.00705196	2	-5.97065e-05	1.38159e-06
2	1	0	1	0	18.3379	-0.188363	-0.187906	0.00838396	2	-5.90876e-05	1.5754e-06
2	1	0	1	0	18.4179	-0.180366	-0.179883	0.00948112	2	-5.83702e-05	1.70549e-06
2	1	0	1	0	18.5133	-0.170812	-0.170344	0.0101174	2	-5.74206e-05	1.72344e-06
2	1	0	1	0	18.6087	-0.161274	-0.160802	0.0102327	2	-5.6425e-05	1.64544e-06
2	1	0	1	0	18.6887	-0.153277	-0.152824	0.00996754	2	-5.55954e-05	1.52328e-06
2	1	0	1	0	18.7687	-0.14528	-0.144813	0.00945671	2	-5.47969e-05	1.36946e-06
2	1	0	1	0	18.8487	-0.137283	-0.136823	0.00883225	2	-5.40427e-05	1.20846e-06
2	1	0	1	0	18.9287	-0.129287	-0.128825	0.00824423	2	-5.33371e-05	1.06206e-06
2	1	0	0	0	19.0085	-0.12129	-0.12084	0.00770747	2	-5.26799e-05	9.31373e-07
2	1	0	0	0	19.0885	-0.113293	-0.112843	0.00720552	2	-5.20637e-05	8.13092e-07
2	1	0	0	0	19.1685	-0.105297	-0.10484	0.00676772	2	-5.14849e-05	7.09528e-07
2	1	0	0	0	19.2485	-0.0972999	-0.0968381	0.00642971	2	-5.09372e-05	6.22641e-07
2	1	0	0	0	19.3285	-0.0893032	-0.0888418	0.00616655	2	-5.0416e-05	5.47847e-07
2	1	0	0	0	19.4085	-0.0813065	-0.0808297	0.00585441	2	-4.99168e-05	4.7321e-07
2	1	0	1	0	19.4883	-0.0733097	-0.0728474	0.00565067	2	-4.94371e-05	4.11637e-07
2	1	0	1	0	19.5683	-0.065313	-0.0648395	0.00543835	2	-4.89716e-05	3.5262e-07
2	1	0	1	0	19.6483	-0.0573163	-0.0568593	0.00530656	2	-4.85185e-05	3.01728e-07
2	1	0	1	0	19.7283	-0.0493196	-0.0488586	0.00519047	2	-4.80763e-05	2.53599e-07
2	1	0	1	0	19.8083	-0.0413229	-0.0408725	0.00510203	2	-4.76426e-05	2.08533e-07
2	1	0	1	0	19.8883	-0.0333262	-0.0328619	0.00504498	2	-4.72158e-05	1.65787e-07
2	1	0	0	0	19.9636	-0.0257793	-0.0253012	0.00493031	2	-4.68193e-05	1.24743e-07