File: TAP_Report/Data/MB_Suscept/6_pk_noanti_1_C01_2.mpt
EC-Lab ASCII FILE
Nb header lines : 56

Cyclic Voltammetry

Run on channel : 1 (SN 0696)
User :
Electrode connection : standard
Ewe ctrl range : min = -2.50 V, max = 2.50 V
Ewe,I filtering : 50 kHz
Safety Limits :
	Do not start on E overload
Channel : Floating
Acquisition started on : 09/12/2016 16:27:19
Saved on :
	File : 6_pk_noanti_1_C01.mpr
	Directory : \\userfs\st659\w2k\EC-Lab\Data\Meth_Blue 12-09-16\
	Host : 144.32.136.43
Device : SP-300 (SN 0182)
Address : USB
EC-Lab for windows v10.44 (software)
Internet server v10.44 (firmware)
Command interpretor v10.44 (firmware)
Electrode material :
Initial state :
Electrolyte :
Comments :
Cable : standard
Reference electrode : SCE Saturated Calomel Electrode (0.241 V)
Electrode surface area : 0.001 cm²
Characteristic mass : 0.001 g
Equivalent Weight : 0.000 g/eq.
Density : 0.000 g/cm3
Ei (V)              0.000
vs.                 Eoc
dE/dt               100.000
dE/dt unit          mV/s
E1 (V)              0.100
vs.                 Ref
Step percent        50
N                   10
E range min (V)     -2.500
E range max (V)     2.500
I Range             Auto
I Range min         Unset
I Range max         Unset
I Range init        Unset
Bandwidth           8
E2 (V)              -0.400
vs.                 Ref
nc cycles           2
Reverse Scan        1
Ef (V)              0.000
vs.                 Eoc

mode	ox/red	error	control changes	counter inc.	time/s	control/V	Ewe/V	<I>/mA	cycle number	(Q-Qo)/C	P/W
2	1	0	0	1	9.9988	-0.0282725	-0.0278507	0.00476727	2	-2.91623e-05	1.32772e-07
2	1	0	1	1	10.0743	-0.0207256	-0.0202972	0.00470528	2	-2.87859e-05	9.55041e-08
2	1	0	1	1	10.1543	-0.0127289	-0.0122933	0.00465311	2	-2.83911e-05	5.72023e-08
2	1	0	1	1	10.2343	-0.00473214	-0.00430005	0.00458766	2	-2.79994e-05	1.97272e-08
2	1	0	1	1	10.3143	0.00326457	0.00369896	0.00456662	2	-2.76097e-05	1.68917e-08
2	1	0	1	1	10.3943	0.0112613	0.0116992	0.00457717	2	-2.72215e-05	5.35494e-08
2	1	0	1	1	10.4743	0.019258	0.0196828	0.00455494	2	-2.68337e-05	8.96539e-08
2	1	0	0	1	10.5541	0.0272547	0.0276941	0.00460973	2	-2.64468e-05	1.27662e-07
2	1	0	0	1	10.6341	0.0352514	0.035681	0.00459165	2	-2.60583e-05	1.63835e-07
2	1	0	0	1	10.7141	0.0432481	0.0436821	0.00463496	2	-2.56679e-05	2.02465e-07
2	1	0	0	1	10.7941	0.0512448	0.0516795	0.00464651	2	-2.52756e-05	2.40129e-07
2	1	0	0	1	10.8741	0.0592416	0.0596821	0.00471487	2	-2.48804e-05	2.81393e-07
2	1	0	0	1	10.9541	0.0672383	0.0676756	0.00474687	2	-2.44815e-05	3.21247e-07
2	1	0	1	1	11.0339	0.075235	0.0756771	0.0047799	2	-2.40787e-05	3.61729e-07
2	1	0	1	1	11.1139	0.0832317	0.0836619	0.00488411	2	-2.36702e-05	4.08614e-07
2	1	0	1	1	11.1939	0.0912284	0.0916533	0.00495966	2	-2.32556e-05	4.54569e-07
2	1	0	1	1	11.2739	0.0992251	0.0996606	0.00503656	2	-2.28339e-05	5.01946e-07
2	0	0	0	1	11.3373	0.0944271	0.094828	0.00156258	2	-2.26841e-05	1.48176e-07
2	0	0	0	1	11.4173	0.0864304	0.0868094	0.000773164	2	-2.26159e-05	6.71179e-08
2	0	0	1	1	11.5283	0.0753349	0.0756877	-0.000105986	2	-2.25936e-05	8.02186e-09
2	0	0	0	1	11.6081	0.0673382	0.0677146	-0.000392107	2	-2.26143e-05	2.65513e-08
2	0	0	0	1	11.6881	0.0593415	0.0597092	-0.000624579	2	-2.26555e-05	3.72931e-08
2	0	0	0	1	11.7681	0.0513448	0.0517043	-0.000810312	2	-2.2713e-05	4.18966e-08
2	0	0	0	1	11.8481	0.0433481	0.043711	-0.000959184	2	-2.27841e-05	4.19269e-08
2	0	0	0	1	11.9281	0.0353514	0.0357075	-0.00110569	2	-2.28673e-05	3.94813e-08
2	0	0	0	1	12.0081	0.0273547	0.027713	-0.00121949	2	-2.29605e-05	3.37958e-08
2	0	0	1	1	12.0879	0.019358	0.0197203	-0.00133408	2	-2.30627e-05	2.63085e-08
2	0	0	1	1	12.1679	0.0113612	0.0117175	-0.00143372	2	-2.31735e-05	1.67996e-08
2	0	0	1	1	12.2479	0.00336453	0.00371486	-0.00151783	2	-2.32917e-05	5.63852e-09
2	0	0	1	1	12.3279	-0.00463218	-0.004285	-0.00160343	2	-2.34172e-05	6.87069e-09
2	0	0	1	1	12.4079	-0.0126289	-0.0122902	-0.00168438	2	-2.35491e-05	2.07013e-08
2	0	0	1	1	12.4879	-0.0206256	-0.0202709	-0.00176536	2	-2.36874e-05	3.57855e-08
2	0	0	1	1	12.5678	-0.0286223	-0.0282641	-0.00187094	2	-2.38316e-05	5.28804e-08
2	0	0	0	1	12.6477	-0.036619	-0.0362662	-0.00190642	2	-2.39821e-05	6.91387e-08
2	0	0	0	1	12.7277	-0.0446158	-0.0442398	-0.00198492	2	-2.41385e-05	8.78123e-08
2	0	0	0	1	12.8077	-0.0526125	-0.0522443	-0.00206491	2	-2.43007e-05	1.0788e-07
2	0	0	0	1	12.8877	-0.0606092	-0.0602452	-0.00212635	2	-2.44689e-05	1.28102e-07
2	0	0	0	1	12.9677	-0.0686059	-0.0682693	-0.00221062	2	-2.46434e-05	1.50917e-07
2	0	0	0	1	13.0477	-0.0766026	-0.0762475	-0.00230542	2	-2.48241e-05	1.75783e-07
2	0	0	1	1	13.1275	-0.0845993	-0.0842175	-0.00237871	2	-2.50115e-05	2.00329e-07
2	0	0	1	1	13.2075	-0.092596	-0.0922434	-0.00249347	2	-2.52073e-05	2.30006e-07
2	0	0	1	1	13.2875	-0.100593	-0.100221	-0.0026115	2	-2.54116e-05	2.61726e-07
2	0	0	1	1	13.3675	-0.108589	-0.108242	-0.00274545	2	-2.56266e-05	2.97174e-07
2	0	0	1	1	13.4475	-0.116586	-0.116245	-0.00292898	2	-2.58547e-05	3.40479e-07
2	0	0	1	1	13.5275	-0.124583	-0.124256	-0.00318388	2	-2.60994e-05	3.95615e-07
2	0	0	0	1	13.6073	-0.13258	-0.132224	-0.00350184	2	-2.63664e-05	4.63029e-07
2	0	0	0	1	13.6873	-0.140576	-0.140237	-0.00394537	2	-2.66642e-05	5.53287e-07
2	0	0	0	1	13.7673	-0.148573	-0.148217	-0.00453192	2	-2.7003e-05	6.71708e-07
2	0	0	0	1	13.8473	-0.15657	-0.156232	-0.00532114	2	-2.73972e-05	8.31334e-07
2	0	0	0	1	13.9273	-0.164567	-0.164238	-0.00631149	2	-2.78621e-05	1.03659e-06
2	0	0	0	1	14.0073	-0.172563	-0.172262	-0.00747814	2	-2.84136e-05	1.2882e-06
2	0	0	1	1	14.0871	-0.18056	-0.18025	-0.00872285	2	-2.90607e-05	1.57229e-06
2	0	0	1	1	14.1671	-0.188557	-0.188266	-0.00993938	2	-2.98084e-05	1.87124e-06
2	0	0	0	1	14.2781	-0.199652	-0.199313	-0.0110853	2	-3.09885e-05	2.20945e-06
2	0	0	0	1	14.3581	-0.207649	-0.207315	-0.0118655	2	-3.19291e-05	2.4599e-06
2	0	0	0	1	14.4381	-0.215646	-0.215302	-0.0123452	2	-3.29207e-05	2.65794e-06
2	0	0	0	1	14.518	-0.223649	-0.223331	-0.0126739	2	-3.39446e-05	2.83047e-06
2	0	0	1	1	14.5979	-0.231639	-0.231304	-0.0128529	2	-3.49868e-05	2.97292e-06
2	0	0	1	1	14.6779	-0.239636	-0.239313	-0.0128649	2	-3.60368e-05	3.07874e-06
2	0	0	1	1	14.7579	-0.247632	-0.24729	-0.0128126	2	-3.70853e-05	3.16844e-06
2	0	0	1	1	14.8379	-0.255629	-0.255311	-0.0126952	2	-3.81271e-05	3.24123e-06
2	0	0	1	1	14.9179	-0.263626	-0.263282	-0.0125639	2	-3.91588e-05	3.30785e-06
2	0	0	1	1	14.9978	-0.271613	-0.27128	-0.012452	2	-4.01787e-05	3.37798e-06
2	0	0	0	1	15.0777	-0.279619	-0.279296	-0.012333	2	-4.11878e-05	3.44455e-06
2	0	0	0	1	15.1577	-0.287616	-0.287269	-0.0121605	2	-4.21874e-05	3.49332e-06
2	0	0	0	1	15.2377	-0.295613	-0.295265	-0.0120866	2	-4.31784e-05	3.56874e-06
2	0	0	0	1	15.3177	-0.303609	-0.303282	-0.0119942	2	-4.41624e-05	3.63764e-06
2	0	0	0	1	15.3977	-0.311606	-0.311267	-0.0119281	2	-4.51414e-05	3.71282e-06
2	0	0	0	1	15.4777	-0.319603	-0.319261	-0.0119348	2	-4.61174e-05	3.81031e-06
2	0	0	1	1	15.5575	-0.3276	-0.327266	-0.0119332	2	-4.70906e-05	3.90534e-06
2	0	0	1	1	15.6375	-0.335596	-0.335262	-0.0119964	2	-4.80676e-05	4.02194e-06
2	0	0	1	1	15.7175	-0.343593	-0.343259	-0.0120584	2	-4.90483e-05	4.13917e-06
2	0	0	1	1	15.7975	-0.35159	-0.351269	-0.0121177	2	-5.00351e-05	4.25659e-06
2	0	0	1	1	15.8775	-0.359586	-0.359256	-0.012235	2	-5.10302e-05	4.39549e-06
2	0	0	1	1	15.9575	-0.367583	-0.367255	-0.0124263	2	-5.20357e-05	4.56361e-06
2	0	0	0	1	16.0373	-0.37558	-0.375245	-0.0125509	2	-5.3052e-05	4.70968e-06
2	0	0	0	1	16.1173	-0.383577	-0.383267	-0.0128037	2	-5.40853e-05	4.90725e-06
2	0	0	0	1	16.1973	-0.391573	-0.391237	-0.0129742	2	-5.51357e-05	5.07597e-06
2	0	0	0	1	16.2768	-0.39952	-0.399164	-0.0132248	2	-5.61991e-05	5.27885e-06
2	1	0	0	0	16.3377	-0.394372	-0.393988	-0.00894674	2	-5.68e-05	3.52491e-06
2	1	0	0	0	16.4177	-0.386375	-0.385983	-0.0077442	2	-5.74429e-05	2.98913e-06
2	1	0	0	0	16.4977	-0.378379	-0.377989	-0.00689014	2	-5.80052e-05	2.6044e-06
2	1	0	0	0	16.5777	-0.370382	-0.370006	-0.00618937	2	-5.85056e-05	2.29011e-06
2	1	0	1	0	16.6575	-0.362385	-0.362006	-0.00557181	2	-5.89515e-05	2.01703e-06
2	1	0	1	0	16.7375	-0.354389	-0.354012	-0.00499113	2	-5.93532e-05	1.76692e-06
2	1	0	1	0	16.8175	-0.346392	-0.345991	-0.00454384	2	-5.97133e-05	1.57213e-06
2	1	0	0	0	16.9285	-0.335296	-0.33489	-0.0036644	2	-6.01548e-05	1.22717e-06
2	1	0	0	0	17.0085	-0.3273	-0.326926	-0.00327543	2	-6.04319e-05	1.07082e-06
2	1	0	1	0	17.0883	-0.319303	-0.318908	-0.00287514	2	-6.06765e-05	9.16904e-07
2	1	0	1	0	17.1683	-0.311306	-0.310917	-0.00252494	2	-6.08915e-05	7.85046e-07
2	1	0	1	0	17.2483	-0.30331	-0.30291	-0.00216646	2	-6.1078e-05	6.56245e-07
2	1	0	1	0	17.3283	-0.295313	-0.294918	-0.00181958	2	-6.12369e-05	5.36627e-07
2	1	0	1	0	17.4083	-0.287316	-0.286927	-0.00148462	2	-6.13684e-05	4.25978e-07
2	1	0	1	0	17.4883	-0.279319	-0.278922	-0.00114429	2	-6.1473e-05	3.19168e-07
2	1	0	0	0	17.5681	-0.271323	-0.270932	-0.000781647	2	-6.1549e-05	2.11773e-07
2	1	0	0	0	17.6481	-0.263326	-0.262929	-0.000384418	2	-6.15955e-05	1.01075e-07
2	1	0	0	0	17.7281	-0.255329	-0.254932	3.63817e-05	2	-6.16098e-05	9.27486e-09
2	1	0	0	0	17.8081	-0.247333	-0.246941	0.000523334	2	-6.15873e-05	1.29233e-07
2	1	0	0	0	17.8881	-0.239336	-0.238934	0.00112291	2	-6.15215e-05	2.68301e-07
2	1	0	0	0	17.9681	-0.231339	-0.230926	0.0018335	2	-6.14037e-05	4.23403e-07
2	1	0	0	0	18.048	-0.22334	-0.222933	0.00275288	2	-6.12227e-05	6.13708e-07
2	1	0	1	0	18.1279	-0.215346	-0.21493	0.00377005	2	-6.09637e-05	8.10297e-07
2	1	0	1	0	18.2079	-0.207349	-0.206945	0.00502628	2	-6.06121e-05	1.04017e-06
2	1	0	1	0	18.2879	-0.199352	-0.198923	0.00639617	2	-6.01553e-05	1.27235e-06
2	1	0	1	0	18.3679	-0.191355	-0.190914	0.00774963	2	-5.95883e-05	1.47951e-06
2	1	0	1	0	18.4479	-0.183359	-0.182898	0.00896347	2	-5.89168e-05	1.63941e-06
2	1	0	1	0	18.5279	-0.175362	-0.174901	0.00982847	2	-5.81622e-05	1.71901e-06
2	1	0	0	0	18.6232	-0.165816	-0.165354	0.010146	2	-5.71956e-05	1.67767e-06
2	1	0	1	0	18.7187	-0.15627	-0.15583	0.00997834	2	-5.62098e-05	1.55492e-06
2	1	0	1	0	18.7987	-0.148273	-0.147844	0.0095734	2	-5.54065e-05	1.41537e-06
2	1	0	1	0	18.8787	-0.140276	-0.139834	0.00898949	2	-5.46429e-05	1.25704e-06
2	1	0	1	0	18.9587	-0.13228	-0.131832	0.0084146	2	-5.39262e-05	1.10931e-06
2	1	0	0	0	19.0385	-0.124283	-0.123847	0.00783749	2	-5.32586e-05	9.70647e-07
2	1	0	0	0	19.1185	-0.116286	-0.115854	0.0073161	2	-5.26333e-05	8.47602e-07
2	1	0	0	0	19.1985	-0.10829	-0.107858	0.00686079	2	-5.20469e-05	7.39991e-07
2	1	0	0	0	19.2785	-0.100293	-0.099849	0.0064561	2	-5.14937e-05	6.44636e-07
2	1	0	0	0	19.3585	-0.0922962	-0.0918625	0.00616424	2	-5.09686e-05	5.66262e-07
2	1	0	0	0	19.4385	-0.0842995	-0.0838484	0.00586962	2	-5.04666e-05	4.92158e-07
2	1	0	1	0	19.5183	-0.0763027	-0.0758645	0.00565801	2	-4.99855e-05	4.29242e-07
2	1	0	1	0	19.5983	-0.068306	-0.0678846	0.00545018	2	-4.95195e-05	3.69983e-07
2	1	0	1	0	19.6783	-0.0603093	-0.059866	0.00533737	2	-4.9067e-05	3.19527e-07
2	1	0	1	0	19.7583	-0.0523126	-0.0518766	0.00515141	2	-4.86258e-05	2.67237e-07
2	1	0	1	0	19.8383	-0.0443159	-0.0438782	0.005051	2	-4.81937e-05	2.21628e-07
2	1	0	1	0	19.9183	-0.0363192	-0.035873	0.00502302	2	-4.77692e-05	1.80191e-07
2	1	0	1	0	19.9957	-0.0285645	-0.0281451	0.00497622	2	-4.73643e-05	1.40056e-07