File: TAP_Report/Data/MB_PB/100 uM MB 10mM PB  second ito_07_CV_C01_2.mpt
EC-Lab ASCII FILE
Nb header lines : 53

Cyclic Voltammetry

Run on channel : 1 (SN 0696)
User :
Electrode connection : standard
Ewe ctrl range : min = -10.00 V, max = 10.00 V
Ewe,I filtering : 50 kHz
Channel : Grounded
Acquisition started on : 05/17/2017 12:39:23
Saved on :
	File : 100 uM MB 10mM PB  second ito_07_CV_C01.mpr
	Directory : \\userfs\st659\w2k\EC-Lab\Data\ITO Characterisation 17-5-17\
	Host : 144.32.136.43
Device : SP-300 (SN 0182)
Address : USB
EC-Lab for windows v10.44 (software)
Internet server v10.44 (firmware)
Command interpretor v10.44 (firmware)
Electrode material :
Initial state :
Electrolyte :
Comments :
Cable : standard
Electrode surface area : 0.001 cm²
Characteristic mass : 0.001 g
Equivalent Weight : 0.000 g/eq.
Density : 0.000 g/cm3
Ei (V)              0.000
vs.                 Eoc
dE/dt               2500.000
dE/dt unit          mV/s
E1 (V)              0.100
vs.                 Ref
Step percent        50
N                   10
E range min (V)     -10.000
E range max (V)     10.000
I Range             Auto
I Range min         Unset
I Range max         Unset
I Range init        Unset
Bandwidth           8
E2 (V)              -0.600
vs.                 Ref
nc cycles           2
Reverse Scan        1
Ef (V)              0.000
vs.                 Eoc

mode	ox/red	error	control changes	counter inc.	time/s	control/V	Ewe/V	<I>/mA	cycle number	(Q-Qo)/C	P/W
2	1	0	1	1	424.93	-0.599827	-0.600104	-0.0180416	2	-3.79498e-06	1.08268e-05
2	1	0	0	1	424.935	-0.587165	-0.58741	-0.0114599	2	-3.86696e-06	6.73167e-06
2	1	0	0	1	424.941	-0.572171	-0.57242	-0.00758008	2	-3.92267e-06	4.33899e-06
2	1	0	0	1	424.947	-0.557177	-0.557421	-0.00529656	2	-3.96063e-06	2.95241e-06
2	1	0	0	1	424.953	-0.542182	-0.54241	-0.00377132	2	-3.98744e-06	2.0456e-06
2	1	0	0	1	424.959	-0.527188	-0.52743	-0.00269096	2	-4.00656e-06	1.41929e-06
2	1	0	0	1	424.965	-0.512194	-0.512434	-0.00186809	2	-4.02004e-06	9.57275e-07
2	1	0	0	1	424.971	-0.4972	-0.49741	-0.00119984	2	-4.02913e-06	5.96812e-07
2	1	0	0	1	424.977	-0.482205	-0.482438	-0.00067287	2	-4.03465e-06	3.24618e-07
2	1	0	0	1	424.983	-0.467211	-0.467442	-0.000213157	2	-4.03724e-06	9.96384e-08
2	1	0	0	1	424.989	-0.452217	-0.452436	0.000190449	2	-4.03723e-06	8.61659e-08
2	1	0	0	1	424.995	-0.437111	-0.437334	0.000588757	2	-4.03494e-06	2.57483e-07
2	1	0	0	1	425.001	-0.422062	-0.422315	0.000901675	2	-4.03037e-06	3.80791e-07
2	1	0	0	1	425.007	-0.407067	-0.407318	0.00118921	2	-4.02405e-06	4.84386e-07
2	1	0	0	1	425.013	-0.392073	-0.392328	0.00149895	2	-4.01598e-06	5.88079e-07
2	1	0	0	1	425.019	-0.377079	-0.377301	0.00180212	2	-4.00607e-06	6.79941e-07
2	1	0	0	1	425.025	-0.362084	-0.36232	0.00209304	2	-3.99438e-06	7.5835e-07
2	1	0	0	1	425.031	-0.34709	-0.34731	0.00239136	2	-3.9809e-06	8.30544e-07
2	1	0	0	1	425.037	-0.332096	-0.332313	0.00270131	2	-3.9656e-06	8.9768e-07
2	1	0	0	1	425.043	-0.317102	-0.317324	0.00303465	2	-3.94837e-06	9.62968e-07
2	1	0	0	1	425.049	-0.302107	-0.302322	0.00339234	2	-3.92902e-06	1.02558e-06
2	1	0	0	1	425.055	-0.287113	-0.287297	0.00381561	2	-3.90737e-06	1.09621e-06
2	1	0	0	1	425.061	-0.272119	-0.272313	0.00428198	2	-3.88293e-06	1.16604e-06
2	1	0	0	1	425.067	-0.257124	-0.257317	0.00489972	2	-3.85536e-06	1.26078e-06
2	1	0	0	1	425.073	-0.24213	-0.242322	0.00558511	2	-3.82391e-06	1.3534e-06
2	1	0	0	1	425.079	-0.227136	-0.227348	0.00640658	2	-3.78795e-06	1.45652e-06
2	1	0	0	1	425.085	-0.212142	-0.212349	0.00737924	2	-3.74653e-06	1.56698e-06
2	1	0	0	1	425.091	-0.197147	-0.197337	0.00847506	2	-3.69895e-06	1.67245e-06
2	1	0	0	1	425.097	-0.182153	-0.182357	0.00960492	2	-3.64479e-06	1.75152e-06
2	1	0	0	1	425.103	-0.167159	-0.167349	0.0106357	2	-3.58392e-06	1.77986e-06
2	1	0	0	1	425.109	-0.152164	-0.152343	0.0115049	2	-3.51734e-06	1.75269e-06
2	1	0	0	1	425.115	-0.13717	-0.137365	0.0122729	2	-3.4457e-06	1.68587e-06
2	1	0	0	1	425.121	-0.122176	-0.122335	0.0128559	2	-3.37019e-06	1.57273e-06
2	1	0	0	1	425.127	-0.107182	-0.107361	0.0131095	2	-3.29208e-06	1.40744e-06
2	1	0	0	1	425.133	-0.0921873	-0.0923487	0.0131805	2	-3.2132e-06	1.2172e-06
2	1	0	0	1	425.139	-0.077193	-0.0773929	0.0130835	2	-3.13425e-06	1.01257e-06
2	1	0	0	1	425.145	-0.0621987	-0.0623816	0.0128431	2	-3.05634e-06	8.01171e-07
2	1	0	0	1	425.151	-0.0472045	-0.0473953	0.0125735	2	-2.98018e-06	5.95922e-07
2	1	0	0	1	425.157	-0.0322102	-0.0323935	0.0121133	2	-2.90613e-06	3.92391e-07
2	1	0	0	1	425.163	-0.0172159	-0.017396	0.0117348	2	-2.83461e-06	2.04138e-07
2	1	0	0	1	425.169	-0.00220309	-0.00239862	0.011372	2	-2.76533e-06	2.72772e-08
2	1	0	0	1	425.175	0.0129393	0.012806	0.0110483	2	-2.69802e-06	1.41484e-07
2	1	0	0	1	425.181	0.0279336	0.0277838	0.0107673	2	-2.6326e-06	2.99157e-07
2	1	0	0	1	425.187	0.0429278	0.0427973	0.0104876	2	-2.56885e-06	4.48842e-07
2	1	0	0	1	425.193	0.0579221	0.0578245	0.0102617	2	-2.50671e-06	5.93377e-07
2	1	0	0	1	425.199	0.0729164	0.0727858	0.010028	2	-2.44595e-06	7.29898e-07
2	1	0	0	1	425.205	0.0879107	0.0877604	0.00986683	2	-2.38623e-06	8.65917e-07
2	1	0	0	1	425.21	0.0995729	0.099433	0.00971097	2	-2.34016e-06	9.65591e-07
2	0	0	1	1	425.212	0.0969072	0.0968279	0.00747652	2	-2.32796e-06	7.23936e-07
2	0	0	1	1	425.218	0.0819129	0.0818054	0.00283109	2	-2.30015e-06	2.31598e-07
2	0	0	1	1	425.224	0.0669187	0.0668392	0.00112477	2	-2.289e-06	7.51789e-08
2	0	0	1	1	425.23	0.0519244	0.0518396	0.000120632	2	-2.28553e-06	6.25349e-09
2	0	0	1	1	425.236	0.0369301	0.0368223	-0.000598243	2	-2.28713e-06	2.20287e-08
2	0	0	1	1	425.242	0.0219358	0.0218261	-0.00118049	2	-2.29259e-06	2.57655e-08
2	0	0	1	1	425.248	0.00694157	0.00683128	-0.00168167	2	-2.30126e-06	1.1488e-08
2	0	0	1	1	425.254	-0.00821931	-0.00836699	-0.00215571	2	-2.31292e-06	1.80368e-08
2	0	0	1	1	425.26	-0.0232136	-0.0233448	-0.00254883	2	-2.32709e-06	5.95019e-08
2	0	0	1	1	425.266	-0.0382079	-0.0383589	-0.00292902	2	-2.34357e-06	1.12354e-07
2	0	0	1	1	425.272	-0.0532022	-0.0533702	-0.00332947	2	-2.36237e-06	1.77694e-07
2	0	0	1	1	425.278	-0.0681964	-0.068343	-0.00368127	2	-2.38345e-06	2.51589e-07
2	0	0	1	1	425.284	-0.0831907	-0.0833407	-0.00407002	2	-2.40678e-06	3.39198e-07
2	0	0	1	1	425.29	-0.098185	-0.0983274	-0.00448526	2	-2.43246e-06	4.41024e-07
2	0	0	1	1	425.296	-0.113179	-0.113298	-0.0048995	2	-2.46064e-06	5.55103e-07
2	0	0	1	1	425.302	-0.128174	-0.128323	-0.00543297	2	-2.49173e-06	6.97174e-07
2	0	0	1	1	425.308	-0.143168	-0.143329	-0.00603098	2	-2.52613e-06	8.64414e-07
2	0	0	1	1	425.314	-0.158162	-0.158309	-0.00669187	2	-2.56427e-06	1.05938e-06
2	0	0	1	1	425.32	-0.173156	-0.173338	-0.00752563	2	-2.60694e-06	1.30448e-06
2	0	0	1	1	425.326	-0.188151	-0.188332	-0.00846351	2	-2.65491e-06	1.59395e-06
2	0	0	1	1	425.332	-0.203145	-0.203302	-0.00949125	2	-2.70882e-06	1.92959e-06
2	0	0	1	1	425.338	-0.218139	-0.21832	-0.0106475	2	-2.76929e-06	2.32455e-06
2	0	0	1	1	425.344	-0.233134	-0.233303	-0.0118333	2	-2.83684e-06	2.76074e-06
2	0	0	1	1	425.35	-0.248128	-0.248298	-0.0130191	2	-2.91161e-06	3.23262e-06
2	0	0	1	1	425.356	-0.263122	-0.263281	-0.0141346	2	-2.99315e-06	3.72137e-06
2	0	0	1	1	425.362	-0.278116	-0.278251	-0.01508	2	-3.08113e-06	4.19603e-06
2	0	0	1	1	425.368	-0.293111	-0.29326	-0.0159677	2	-3.17454e-06	4.68268e-06
2	0	0	1	1	425.374	-0.308105	-0.308299	-0.0166808	2	-3.27281e-06	5.14267e-06
2	0	0	1	1	425.38	-0.323099	-0.323276	-0.017261	2	-3.37483e-06	5.58007e-06
2	0	0	1	1	425.386	-0.338094	-0.338268	-0.0176469	2	-3.47961e-06	5.96937e-06
2	0	0	1	1	425.392	-0.353088	-0.353297	-0.0177922	2	-3.58598e-06	6.28595e-06
2	0	0	1	1	425.398	-0.368082	-0.368272	-0.0177319	2	-3.69257e-06	6.53017e-06
2	0	0	1	1	425.404	-0.383076	-0.383289	-0.0176325	2	-3.79885e-06	6.75835e-06
2	0	0	1	1	425.41	-0.398071	-0.398286	-0.0174061	2	-3.90385e-06	6.93258e-06
2	0	0	1	1	425.416	-0.413065	-0.41327	-0.0171847	2	-4.00748e-06	7.10191e-06
2	0	0	1	1	425.422	-0.428059	-0.428248	-0.0168857	2	-4.10951e-06	7.23126e-06
2	0	0	1	1	425.428	-0.44322	-0.443402	-0.0167095	2	-4.21032e-06	7.40901e-06
2	0	0	1	1	425.434	-0.458214	-0.458397	-0.0164747	2	-4.30974e-06	7.55197e-06
2	0	0	1	1	425.44	-0.473209	-0.4734	-0.0163706	2	-4.4082e-06	7.74982e-06
2	0	0	1	1	425.446	-0.488203	-0.488401	-0.0162155	2	-4.50597e-06	7.91968e-06
2	0	0	1	1	425.452	-0.503197	-0.503406	-0.0161153	2	-4.60298e-06	8.11251e-06
2	0	0	1	1	425.458	-0.518192	-0.518391	-0.0161121	2	-4.69964e-06	8.35238e-06
2	0	0	1	1	425.464	-0.533186	-0.53337	-0.0160424	2	-4.79599e-06	8.55653e-06
2	0	0	1	1	425.47	-0.54818	-0.54837	-0.0161	2	-4.89243e-06	8.82876e-06
2	0	0	1	1	425.476	-0.563174	-0.563391	-0.0162375	2	-4.98949e-06	9.14806e-06
2	0	0	1	1	425.482	-0.578169	-0.578382	-0.0162806	2	-5.08713e-06	9.41639e-06
2	0	0	1	1	425.488	-0.593163	-0.593354	-0.0164965	2	-5.18565e-06	9.78824e-06
2	0	0	0	1	425.491	-0.600493	-0.600668	-0.0166663	2	-5.23367e-06	1.00109e-05