File: TAP_Report/Data/MB_PB/100 uM MB 10mM PB  second ito_05_CV_C01_2.mpt
EC-Lab ASCII FILE
Nb header lines : 53

Cyclic Voltammetry

Run on channel : 1 (SN 0696)
User :
Electrode connection : standard
Ewe ctrl range : min = -10.00 V, max = 10.00 V
Ewe,I filtering : 50 kHz
Channel : Grounded
Acquisition started on : 05/17/2017 12:39:23
Saved on :
	File : 100 uM MB 10mM PB  second ito_05_CV_C01.mpr
	Directory : \\userfs\st659\w2k\EC-Lab\Data\ITO Characterisation 17-5-17\
	Host : 144.32.136.43
Device : SP-300 (SN 0182)
Address : USB
EC-Lab for windows v10.44 (software)
Internet server v10.44 (firmware)
Command interpretor v10.44 (firmware)
Electrode material :
Initial state :
Electrolyte :
Comments :
Cable : standard
Electrode surface area : 0.001 cm²
Characteristic mass : 0.001 g
Equivalent Weight : 0.000 g/eq.
Density : 0.000 g/cm3
Ei (V)              0.000
vs.                 Eoc
dE/dt               500.000
dE/dt unit          mV/s
E1 (V)              0.100
vs.                 Ref
Step percent        50
N                   10
E range min (V)     -10.000
E range max (V)     10.000
I Range             Auto
I Range min         Unset
I Range max         Unset
I Range init        Unset
Bandwidth           8
E2 (V)              -0.600
vs.                 Ref
nc cycles           2
Reverse Scan        1
Ef (V)              0.000
vs.                 Eoc

mode	ox/red	error	control changes	counter inc.	time/s	control/V	Ewe/V	<I>/mA	cycle number	(Q-Qo)/C	P/W
2	1	0	1	1	411.765	-0.60016	-0.600375	-0.00852829	2	-7.90065e-06	5.12017e-06
2	1	0	0	1	411.788	-0.588331	-0.588539	-0.00577953	2	-8.0553e-06	3.40148e-06
2	1	0	1	1	411.815	-0.575037	-0.575236	-0.00499529	2	-8.19689e-06	2.87347e-06
2	1	0	1	1	411.842	-0.561642	-0.561837	-0.00447066	2	-8.32264e-06	2.51179e-06
2	1	0	0	1	411.868	-0.548347	-0.548541	-0.00406403	2	-8.43521e-06	2.22929e-06
2	1	0	1	1	411.895	-0.535052	-0.53524	-0.00373097	2	-8.53798e-06	1.99696e-06
2	1	0	0	1	411.922	-0.521724	-0.521932	-0.00345105	2	-8.6327e-06	1.80121e-06
2	1	0	0	1	411.948	-0.508329	-0.50852	-0.00320146	2	-8.72098e-06	1.62801e-06
2	1	0	1	1	411.975	-0.495034	-0.495224	-0.00298188	2	-8.80242e-06	1.4767e-06
2	1	0	0	1	412.002	-0.481739	-0.48194	-0.00278806	2	-8.87838e-06	1.34368e-06
2	1	0	0	1	412.028	-0.468344	-0.468532	-0.00260032	2	-8.94973e-06	1.21833e-06
2	1	0	1	1	412.055	-0.455049	-0.455203	-0.00242482	2	-9.01576e-06	1.10378e-06
2	1	0	0	1	412.082	-0.441754	-0.441948	-0.00226591	2	-9.0774e-06	1.00141e-06
2	1	0	1	1	412.108	-0.428426	-0.428613	-0.002111	2	-9.13475e-06	9.04802e-07
2	1	0	1	1	412.135	-0.415031	-0.415217	-0.00195768	2	-9.1885e-06	8.12861e-07
2	1	0	0	1	412.162	-0.401736	-0.401946	-0.00181395	2	-9.23788e-06	7.29111e-07
2	1	0	1	1	412.188	-0.388441	-0.388642	-0.00166731	2	-9.28337e-06	6.47989e-07
2	1	0	1	1	412.215	-0.375046	-0.375224	-0.00152179	2	-9.32531e-06	5.7101e-07
2	1	0	0	1	412.242	-0.361751	-0.361953	-0.00138038	2	-9.36313e-06	4.99631e-07
2	1	0	1	1	412.268	-0.348423	-0.348603	-0.00122113	2	-9.39707e-06	4.2569e-07
2	1	0	0	1	412.295	-0.335128	-0.335285	-0.00107553	2	-9.42696e-06	3.60609e-07
2	1	0	0	1	412.322	-0.321733	-0.321878	-0.00091316	2	-9.45286e-06	2.93927e-07
2	1	0	1	1	412.348	-0.308438	-0.308597	-0.000735411	2	-9.47414e-06	2.26946e-07
2	1	0	0	1	412.375	-0.295143	-0.295286	-0.000536524	2	-9.49043e-06	1.58428e-07
2	1	0	0	1	412.402	-0.281748	-0.281872	-0.000311845	2	-9.5011e-06	8.79002e-08
2	1	0	1	1	412.428	-0.268453	-0.2686	-4.88781e-05	2	-9.50526e-06	1.31287e-08
2	1	0	0	1	412.455	-0.255125	-0.255284	0.000262531	2	-9.50168e-06	6.702e-08
2	1	0	1	1	412.481	-0.24183	-0.241988	0.000631369	2	-9.48915e-06	1.52784e-07
2	1	0	1	1	412.508	-0.228435	-0.228599	0.00106183	2	-9.46575e-06	2.42734e-07
2	1	0	0	1	412.535	-0.21514	-0.215311	0.00153214	2	-9.43038e-06	3.29888e-07
2	1	0	1	1	412.561	-0.201846	-0.202007	0.00203633	2	-9.38199e-06	4.11354e-07
2	1	0	1	1	412.588	-0.188451	-0.188603	0.00252221	2	-9.31982e-06	4.75698e-07
2	1	0	0	1	412.615	-0.175145	-0.175289	0.00299924	2	-9.24528e-06	5.25733e-07
2	1	0	1	1	412.641	-0.161827	-0.161953	0.00337729	2	-9.15954e-06	5.46961e-07
2	1	0	0	1	412.668	-0.148532	-0.148668	0.00367165	2	-9.06457e-06	5.45859e-07
2	1	0	0	1	412.695	-0.135138	-0.135256	0.00386451	2	-8.96272e-06	5.22699e-07
2	1	0	1	1	412.721	-0.121843	-0.121951	0.00390909	2	-8.85849e-06	4.76717e-07
2	1	0	0	1	412.748	-0.108548	-0.108651	0.00386871	2	-8.75416e-06	4.20342e-07
2	1	0	0	1	412.775	-0.0951528	-0.0952762	0.00375204	2	-8.65135e-06	3.5748e-07
2	1	0	1	1	412.801	-0.0818246	-0.0819536	0.00360025	2	-8.55287e-06	2.95054e-07
2	1	0	0	1	412.828	-0.0685297	-0.068654	0.00343591	2	-8.45872e-06	2.35889e-07
2	1	0	1	1	412.855	-0.0552347	-0.0553752	0.00329853	2	-8.36843e-06	1.82656e-07
2	1	0	1	1	412.881	-0.0418398	-0.0419653	0.00317902	2	-8.28089e-06	1.33409e-07
2	1	0	0	1	412.908	-0.0285449	-0.0286669	0.00308417	2	-8.19698e-06	8.84137e-08
2	1	0	1	1	412.935	-0.01525	-0.0153919	0.00299283	2	-8.11563e-06	4.60652e-08
2	1	0	1	1	412.961	-0.00185507	-0.00200536	0.0029238	2	-8.0355e-06	5.86328e-09
2	1	0	0	1	412.988	0.0114732	0.0113747	0.00287639	2	-7.95747e-06	3.27181e-08
2	1	0	1	1	413.015	0.0247681	0.024665	0.00283149	2	-7.88079e-06	6.98387e-08
2	1	0	0	1	413.041	0.038063	0.037973	0.00280706	2	-7.80507e-06	1.06592e-07
2	1	0	0	1	413.068	0.0514579	0.0513876	0.00277894	2	-7.72943e-06	1.42803e-07
2	1	0	1	1	413.095	0.0647528	0.0646913	0.00275512	2	-7.65511e-06	1.78233e-07
2	1	0	0	1	413.121	0.0780478	0.0779663	0.00275066	2	-7.58105e-06	2.14459e-07
2	1	0	1	1	413.148	0.091376	0.0912877	0.00275008	2	-7.50708e-06	2.51048e-07
2	0	0	0	1	413.165	0.100239	0.100127	0.00277724	2	-7.45818e-06	2.78078e-07
2	0	0	1	1	413.189	0.0883994	0.088252	0.000985338	2	-7.42586e-06	8.6958e-08
2	0	0	0	1	413.216	0.0750822	0.0749318	0.000627191	2	-7.40548e-06	4.69966e-08
2	0	0	1	1	413.242	0.0617873	0.0616548	0.000368049	2	-7.39314e-06	2.2692e-08
2	0	0	1	1	413.269	0.0483924	0.0482704	0.000148772	2	-7.38706e-06	7.1813e-09
2	0	0	0	1	413.296	0.0350975	0.0349484	-4.58644e-05	2	-7.38655e-06	1.60289e-09
2	0	0	1	1	413.322	0.0218026	0.0216347	-0.000219653	2	-7.39092e-06	4.75212e-09
2	0	0	1	1	413.349	0.00840768	0.00824964	-0.000389148	2	-7.39987e-06	3.21033e-09
2	0	0	0	1	413.376	-0.00492057	-0.00511568	-0.000544754	2	-7.41314e-06	2.78679e-09
2	0	0	1	1	413.402	-0.0182155	-0.0184049	-0.000694156	2	-7.43041e-06	1.27759e-08
2	0	0	0	1	413.429	-0.0315104	-0.0317107	-0.000841931	2	-7.45156e-06	2.66982e-08
2	0	0	0	1	413.456	-0.0449053	-0.0451078	-0.000985878	2	-7.4768e-06	4.44708e-08
2	0	0	1	1	413.482	-0.0582003	-0.0584223	-0.00112799	2	-7.50568e-06	6.58995e-08
2	0	0	0	1	413.509	-0.0714952	-0.0716988	-0.00127559	2	-7.53836e-06	9.1458e-08
2	0	0	0	1	413.536	-0.0848901	-0.0850763	-0.00142302	2	-7.57532e-06	1.21065e-07
2	0	0	1	1	413.562	-0.0982183	-0.0983985	-0.00158847	2	-7.61617e-06	1.56304e-07
2	0	0	0	1	413.589	-0.111513	-0.111687	-0.00176053	2	-7.66141e-06	1.96627e-07
2	0	0	1	1	413.615	-0.124808	-0.124979	-0.00196591	2	-7.7117e-06	2.45698e-07
2	0	0	1	1	413.642	-0.138203	-0.138388	-0.00220422	2	-7.76827e-06	3.05037e-07
2	0	0	0	1	413.669	-0.151498	-0.151693	-0.00249197	2	-7.83138e-06	3.78014e-07
2	0	0	1	1	413.695	-0.164793	-0.165002	-0.00285131	2	-7.90307e-06	4.70472e-07
2	0	0	0	1	413.722	-0.178121	-0.178335	-0.00330438	2	-7.98551e-06	5.89287e-07
2	0	0	0	1	413.749	-0.191516	-0.191724	-0.00382226	2	-8.08152e-06	7.32817e-07
2	0	0	1	1	413.775	-0.204811	-0.204999	-0.00440493	2	-8.19155e-06	9.03005e-07
2	0	0	0	1	413.802	-0.218106	-0.218319	-0.00503536	2	-8.31789e-06	1.09931e-06
2	0	0	0	1	413.829	-0.231501	-0.231741	-0.00567553	2	-8.46221e-06	1.31525e-06
2	0	0	1	1	413.855	-0.244796	-0.245027	-0.00625096	2	-8.62169e-06	1.53165e-06
2	0	0	0	1	413.882	-0.258091	-0.258309	-0.00674937	2	-8.79562e-06	1.74342e-06
2	0	0	1	1	413.909	-0.271419	-0.271608	-0.00712182	2	-8.98115e-06	1.93434e-06
2	0	0	1	1	413.935	-0.284814	-0.284992	-0.00734775	2	-9.17566e-06	2.09405e-06
2	0	0	0	1	413.962	-0.298109	-0.298352	-0.0074127	2	-9.37248e-06	2.21159e-06
2	0	0	1	1	413.989	-0.311404	-0.311645	-0.00733817	2	-9.56963e-06	2.2869e-06
2	0	0	1	1	414.015	-0.324799	-0.325014	-0.0071873	2	-9.76498e-06	2.33598e-06
2	0	0	0	1	414.042	-0.338094	-0.338307	-0.00700572	2	-9.95429e-06	2.37008e-06
2	0	0	1	1	414.069	-0.351422	-0.351673	-0.0068041	2	-1.01389e-05	2.39282e-06
2	0	0	0	1	414.095	-0.364717	-0.364953	-0.00665946	2	-1.03189e-05	2.43039e-06
2	0	0	0	1	414.122	-0.378112	-0.378345	-0.00653356	2	-1.04964e-05	2.47193e-06
2	0	0	1	1	414.149	-0.391407	-0.391661	-0.00642752	2	-1.06696e-05	2.51741e-06
2	0	0	0	1	414.175	-0.404702	-0.404936	-0.00636279	2	-1.08404e-05	2.57652e-06
2	0	0	0	1	414.202	-0.418096	-0.418347	-0.00632255	2	-1.10112e-05	2.64502e-06
2	0	0	1	1	414.229	-0.431391	-0.431626	-0.00629553	2	-1.11797e-05	2.71731e-06
2	0	0	0	1	414.255	-0.44472	-0.444953	-0.00629741	2	-1.13481e-05	2.80205e-06
2	0	0	1	1	414.282	-0.458014	-0.458246	-0.00631267	2	-1.15165e-05	2.89275e-06
2	0	0	1	1	414.309	-0.471409	-0.471671	-0.00636685	2	-1.16871e-05	3.00306e-06
2	0	0	0	1	414.335	-0.484704	-0.484949	-0.00639909	2	-1.18575e-05	3.10323e-06
2	0	0	1	1	414.362	-0.497999	-0.498255	-0.00645749	2	-1.20293e-05	3.21747e-06
2	0	0	1	1	414.389	-0.511394	-0.511667	-0.006566	2	-1.22048e-05	3.35961e-06
2	0	0	0	1	414.415	-0.524711	-0.524952	-0.00665613	2	-1.23812e-05	3.49415e-06
2	0	0	1	1	414.442	-0.538017	-0.538259	-0.00677319	2	-1.25607e-05	3.64573e-06
2	0	0	0	1	414.468	-0.551312	-0.551558	-0.00693222	2	-1.27437e-05	3.82352e-06
2	0	0	0	1	414.495	-0.564707	-0.564984	-0.00710411	2	-1.29324e-05	4.0137e-06
2	0	0	1	1	414.522	-0.578002	-0.578266	-0.00732003	2	-1.31249e-05	4.23293e-06
2	0	0	0	1	414.548	-0.591297	-0.591559	-0.0075568	2	-1.33233e-05	4.47029e-06
2	0	0	0	1	414.565	-0.599827	-0.600096	-0.00777497	2	-1.3454e-05	4.66573e-06