File: TAP_Report/Data/MB_PB/100 uM MB 10mM PB  second ito_02_CV_C01_2.mpt
EC-Lab ASCII FILE
Nb header lines : 53

Cyclic Voltammetry

Run on channel : 1 (SN 0696)
User :
Electrode connection : standard
Ewe ctrl range : min = -10.00 V, max = 10.00 V
Ewe,I filtering : 50 kHz
Channel : Grounded
Acquisition started on : 05/17/2017 12:39:23
Saved on :
	File : 100 uM MB 10mM PB  second ito_02_CV_C01.mpr
	Directory : \\userfs\st659\w2k\EC-Lab\Data\ITO Characterisation 17-5-17\
	Host : 144.32.136.43
Device : SP-300 (SN 0182)
Address : USB
EC-Lab for windows v10.44 (software)
Internet server v10.44 (firmware)
Command interpretor v10.44 (firmware)
Electrode material :
Initial state :
Electrolyte :
Comments :
Cable : standard
Electrode surface area : 0.001 cm²
Characteristic mass : 0.001 g
Equivalent Weight : 0.000 g/eq.
Density : 0.000 g/cm3
Ei (V)              0.000
vs.                 Eoc
dE/dt               50.000
dE/dt unit          mV/s
E1 (V)              0.100
vs.                 Ref
Step percent        50
N                   10
E range min (V)     -10.000
E range max (V)     10.000
I Range             Auto
I Range min         Unset
I Range max         Unset
I Range init        Unset
Bandwidth           8
E2 (V)              -0.600
vs.                 Ref
nc cycles           2
Reverse Scan        1
Ef (V)              0.000
vs.                 Eoc

mode	ox/red	error	control changes	counter inc.	time/s	control/V	Ewe/V	<I>/mA	cycle number	(Q-Qo)/C	P/W
2	1	0	1	1	264.468	-0.599827	-0.600039	-0.0048387	2	-3.97112e-05	2.90341e-06
2	1	0	0	1	264.705	-0.587995	-0.588237	-0.00423334	2	-4.07572e-05	2.49021e-06
2	1	0	0	1	264.971	-0.574673	-0.574927	-0.00384417	2	-4.18195e-05	2.21012e-06
2	1	0	1	1	265.238	-0.561345	-0.561599	-0.00353925	2	-4.27913e-05	1.98764e-06
2	1	0	0	1	265.505	-0.548014	-0.548244	-0.00328719	2	-4.36892e-05	1.80218e-06
2	1	0	1	1	265.771	-0.534685	-0.534914	-0.00307268	2	-4.45251e-05	1.64362e-06
2	1	0	0	1	266.038	-0.521354	-0.521575	-0.00289038	2	-4.53085e-05	1.50755e-06
2	1	0	1	1	266.304	-0.50803	-0.50827	-0.00272734	2	-4.60457e-05	1.38623e-06
2	1	0	1	1	266.571	-0.494704	-0.49492	-0.00258462	2	-4.67424e-05	1.27918e-06
2	1	0	0	1	266.837	-0.481374	-0.481617	-0.00245433	2	-4.74031e-05	1.18205e-06
2	1	0	1	1	267.104	-0.468044	-0.468286	-0.00233627	2	-4.8031e-05	1.09404e-06
2	1	0	0	1	267.371	-0.454715	-0.45492	-0.0022278	2	-4.86286e-05	1.01347e-06
2	1	0	1	1	267.637	-0.441384	-0.441623	-0.00212834	2	-4.91983e-05	9.39926e-07
2	1	0	0	1	267.904	-0.428059	-0.428307	-0.00203386	2	-4.97418e-05	8.71114e-07
2	1	0	0	1	268.17	-0.414734	-0.414976	-0.00194524	2	-5.02614e-05	8.07228e-07
2	1	0	1	1	268.437	-0.401404	-0.40165	-0.00185911	2	-5.07579e-05	7.46713e-07
2	1	0	0	1	268.703	-0.388074	-0.388315	-0.00177767	2	-5.1232e-05	6.90297e-07
2	1	0	1	1	268.97	-0.374743	-0.374974	-0.00169788	2	-5.16846e-05	6.36662e-07
2	1	0	0	1	269.237	-0.361415	-0.361646	-0.00162214	2	-5.21164e-05	5.86643e-07
2	1	0	0	1	269.503	-0.348093	-0.34834	-0.00154552	2	-5.25276e-05	5.38364e-07
2	1	0	1	1	269.77	-0.334765	-0.334981	-0.00147124	2	-5.2919e-05	4.9284e-07
2	1	0	0	1	270.036	-0.321433	-0.321631	-0.0013965	2	-5.32905e-05	4.49156e-07
2	1	0	1	1	270.303	-0.308105	-0.308329	-0.00131987	2	-5.36421e-05	4.06954e-07
2	1	0	0	1	270.569	-0.294773	-0.294961	-0.00123909	2	-5.39728e-05	3.65483e-07
2	1	0	1	1	270.836	-0.281445	-0.28162	-0.00115362	2	-5.42813e-05	3.24884e-07
2	1	0	1	1	271.102	-0.268124	-0.268317	-0.00105663	2	-5.45654e-05	2.83513e-07
2	1	0	0	1	271.369	-0.254795	-0.254993	-0.00094397	2	-5.48217e-05	2.40706e-07
2	1	0	1	1	271.636	-0.241464	-0.241669	-0.000804785	2	-5.50447e-05	1.94492e-07
2	1	0	0	1	271.902	-0.228134	-0.228349	-0.000630811	2	-5.52263e-05	1.44045e-07
2	1	0	1	1	272.209	-0.212805	-0.213004	-0.000355168	2	-5.53691e-05	7.56524e-08
2	1	0	0	1	272.475	-0.199479	-0.199646	-6.43222e-05	2	-5.54181e-05	1.28417e-08
2	1	0	0	1	272.742	-0.186155	-0.18634	0.000238196	2	-5.53868e-05	4.43854e-08
2	1	0	1	1	273.008	-0.172823	-0.17301	0.000483396	2	-5.52807e-05	8.36325e-08
2	1	0	0	1	273.275	-0.159495	-0.159641	0.000605357	2	-5.51251e-05	9.66398e-08
2	1	0	1	1	273.542	-0.146163	-0.146304	0.000612078	2	-5.49531e-05	8.95495e-08
2	1	0	0	1	273.808	-0.132835	-0.132974	0.000548622	2	-5.47901e-05	7.29525e-08
2	1	0	0	1	274.075	-0.119514	-0.119657	0.000466593	2	-5.46472e-05	5.58309e-08
2	1	0	1	1	274.341	-0.106185	-0.106304	0.000394016	2	-5.45251e-05	4.18854e-08
2	1	0	0	1	274.608	-0.0928537	-0.0929888	0.000338075	2	-5.44203e-05	3.14372e-08
2	1	0	1	1	274.874	-0.0795244	-0.07969	0.000296966	2	-5.43284e-05	2.36652e-08
2	1	0	0	1	275.141	-0.0661939	-0.0663626	0.000268368	2	-5.42455e-05	1.78096e-08
2	1	0	1	1	275.407	-0.052869	-0.0530448	0.000249079	2	-5.41691e-05	1.32123e-08
2	1	0	1	1	275.674	-0.039544	-0.0396678	0.000235921	2	-5.40969e-05	9.35844e-09
2	1	0	0	1	275.941	-0.0262147	-0.0263533	0.000226451	2	-5.40275e-05	5.96772e-09
2	1	0	1	1	276.207	-0.0128842	-0.0130466	0.000222536	2	-5.39599e-05	2.90333e-09
2	1	0	0	1	276.474	0.000458537	0.000290312	0.000221638	2	-5.38928e-05	6.43442e-11
2	1	0	1	1	276.74	0.0137756	0.0136667	0.000222737	2	-5.38257e-05	3.04408e-09
2	1	0	0	1	277.007	0.0271017	0.0269693	0.000224447	2	-5.37584e-05	6.05319e-09
2	1	0	0	1	277.273	0.0404255	0.0402882	0.000229078	2	-5.369e-05	9.22913e-09
2	1	0	1	1	277.54	0.053757	0.0536561	0.000236471	2	-5.362e-05	1.26881e-08
2	1	0	0	1	277.807	0.0670853	0.0669689	0.000244264	2	-5.35482e-05	1.63581e-08
2	1	0	1	1	278.073	0.0804169	0.0803103	0.000253373	2	-5.3474e-05	2.03484e-08
2	1	0	0	1	278.34	0.0937451	0.0936262	0.000264043	2	-5.33971e-05	2.47214e-08
2	0	0	1	1	278.5	0.0980701	0.0979456	0.000142921	2	-5.3356e-05	1.39985e-08
2	0	0	1	1	278.767	0.0847485	0.0846005	-3.98266e-05	2	-5.3353e-05	3.36935e-09
2	0	0	0	1	279.033	0.0714203	0.071292	-0.000168294	2	-5.33896e-05	1.1998e-08
2	0	0	1	1	279.3	0.0580887	0.0579945	-0.000277249	2	-5.34574e-05	1.60789e-08
2	0	0	0	1	279.567	0.0447594	0.0446084	-0.000374643	2	-5.35526e-05	1.67122e-08
2	0	0	1	1	279.833	0.0314289	0.0312661	-0.000459442	2	-5.3672e-05	1.4365e-08
2	0	0	0	1	280.1	0.018104	0.0179405	-0.000537664	2	-5.38131e-05	9.64597e-09
2	0	0	0	1	280.366	0.00477906	0.00458194	-0.000609621	2	-5.39741e-05	2.79324e-09
2	0	0	1	1	280.633	-0.00855141	-0.00876828	-0.000676639	2	-5.41535e-05	5.93296e-09
2	0	0	0	1	280.899	-0.0218808	-0.0220822	-0.000738977	2	-5.43502e-05	1.63183e-08
2	0	0	1	1	281.166	-0.0352112	-0.0354197	-0.000797068	2	-5.4563e-05	2.82319e-08
2	0	0	0	1	281.433	-0.0485406	-0.0487576	-0.000853288	2	-5.47911e-05	4.16043e-08
2	0	0	1	1	281.699	-0.0618666	-0.0620981	-0.000907861	2	-5.50337e-05	5.63764e-08
2	0	0	0	1	281.999	-0.0768598	-0.0770426	-0.00095625	2	-5.53248e-05	7.3672e-08
2	0	0	1	1	282.266	-0.0901914	-0.0903603	-0.00100725	2	-5.55965e-05	9.10151e-08
2	0	0	0	1	282.532	-0.103515	-0.103693	-0.0010598	2	-5.5882e-05	1.09894e-07
2	0	0	0	1	282.799	-0.116841	-0.116995	-0.00111581	2	-5.61818e-05	1.30544e-07
2	0	0	1	1	283.065	-0.130171	-0.130342	-0.00118054	2	-5.64978e-05	1.53874e-07
2	0	0	0	1	283.332	-0.143501	-0.143681	-0.00126081	2	-5.68331e-05	1.81154e-07
2	0	0	1	1	283.598	-0.156832	-0.157001	-0.00137425	2	-5.71937e-05	2.15758e-07
2	0	0	0	1	283.865	-0.170161	-0.170361	-0.00154044	2	-5.75912e-05	2.6243e-07
2	0	0	1	1	284.131	-0.183486	-0.183703	-0.00177961	2	-5.80422e-05	3.2692e-07
2	0	0	1	1	284.398	-0.196811	-0.196997	-0.00209565	2	-5.85676e-05	4.12837e-07
2	0	0	0	1	284.665	-0.210141	-0.210336	-0.00246057	2	-5.91854e-05	5.17547e-07
2	0	0	1	1	284.931	-0.223471	-0.22369	-0.00278653	2	-5.9897e-05	6.23318e-07
2	0	0	0	1	285.198	-0.236802	-0.237004	-0.00298257	2	-6.06799e-05	7.06881e-07
2	0	0	1	1	285.464	-0.25013	-0.250348	-0.00303195	2	-6.14946e-05	7.59044e-07
2	0	0	1	1	285.731	-0.263452	-0.263649	-0.00299371	2	-6.23084e-05	7.89291e-07
2	0	0	0	1	285.997	-0.27678	-0.276981	-0.0029168	2	-6.31067e-05	8.07897e-07
2	0	0	1	1	286.264	-0.290112	-0.290319	-0.00284471	2	-6.38846e-05	8.25874e-07
2	0	0	0	1	286.531	-0.30344	-0.303653	-0.00278773	2	-6.46452e-05	8.46502e-07
2	0	0	1	1	286.797	-0.316772	-0.316986	-0.00274999	2	-6.5393e-05	8.71708e-07
2	0	0	0	1	287.064	-0.3301	-0.330302	-0.00272742	2	-6.61327e-05	9.00874e-07
2	0	0	0	1	287.33	-0.343422	-0.343669	-0.00272237	2	-6.68686e-05	9.35595e-07
2	0	0	1	1	287.597	-0.35675	-0.356996	-0.00272918	2	-6.76054e-05	9.74308e-07
2	0	0	0	1	287.863	-0.370081	-0.370287	-0.00274885	2	-6.83459e-05	1.01786e-06
2	0	0	1	1	288.13	-0.383411	-0.383645	-0.00277568	2	-6.90923e-05	1.06487e-06
2	0	0	0	1	288.397	-0.396741	-0.397005	-0.00280828	2	-6.98469e-05	1.1149e-06
2	0	0	1	1	288.663	-0.410066	-0.410306	-0.00284937	2	-7.0611e-05	1.16911e-06
2	0	0	1	1	288.93	-0.423391	-0.423638	-0.00289483	2	-7.13866e-05	1.22636e-06
2	0	0	0	1	289.196	-0.43672	-0.436946	-0.00294892	2	-7.21755e-05	1.28852e-06
2	0	0	1	1	289.463	-0.450051	-0.450261	-0.0030092	2	-7.29797e-05	1.35493e-06
2	0	0	0	1	289.729	-0.463381	-0.46358	-0.00307641	2	-7.3801e-05	1.42616e-06
2	0	0	1	1	289.996	-0.476711	-0.476942	-0.0031526	2	-7.46416e-05	1.50361e-06
2	0	0	0	1	290.262	-0.490037	-0.490264	-0.00323838	2	-7.55035e-05	1.58766e-06
2	0	0	0	1	290.529	-0.503361	-0.503588	-0.00334087	2	-7.63902e-05	1.68242e-06
2	0	0	1	1	290.796	-0.516692	-0.516925	-0.00345227	2	-7.73058e-05	1.78457e-06
2	0	0	0	1	291.062	-0.53002	-0.530254	-0.00358455	2	-7.82539e-05	1.90072e-06
2	0	0	1	1	291.329	-0.543352	-0.543572	-0.00373413	2	-7.92394e-05	2.02977e-06
2	0	0	0	1	291.595	-0.55668	-0.556918	-0.0039092	2	-8.02684e-05	2.1771e-06
2	0	0	0	1	291.862	-0.570002	-0.570258	-0.00411075	2	-8.13462e-05	2.34419e-06
2	0	0	1	1	292.128	-0.58333	-0.583562	-0.00433655	2	-8.24818e-05	2.53065e-06
2	0	0	0	1	292.395	-0.596662	-0.596899	-0.00458981	2	-8.36816e-05	2.73966e-06
2	0	0	0	1	292.459	-0.60016	-0.600268	-0.0047349	2	-8.39776e-05	2.84221e-06