File: TAP_Report/Data/MB_PB/100 uM MB 10mM PB  second ito_03_CV_C01_2.mpt
EC-Lab ASCII FILE
Nb header lines : 53

Cyclic Voltammetry

Run on channel : 1 (SN 0696)
User :
Electrode connection : standard
Ewe ctrl range : min = -10.00 V, max = 10.00 V
Ewe,I filtering : 50 kHz
Channel : Grounded
Acquisition started on : 05/17/2017 12:39:23
Saved on :
	File : 100 uM MB 10mM PB  second ito_03_CV_C01.mpr
	Directory : \\userfs\st659\w2k\EC-Lab\Data\ITO Characterisation 17-5-17\
	Host : 144.32.136.43
Device : SP-300 (SN 0182)
Address : USB
EC-Lab for windows v10.44 (software)
Internet server v10.44 (firmware)
Command interpretor v10.44 (firmware)
Electrode material :
Initial state :
Electrolyte :
Comments :
Cable : standard
Electrode surface area : 0.001 cm²
Characteristic mass : 0.001 g
Equivalent Weight : 0.000 g/eq.
Density : 0.000 g/cm3
Ei (V)              0.000
vs.                 Eoc
dE/dt               100.000
dE/dt unit          mV/s
E1 (V)              0.100
vs.                 Ref
Step percent        50
N                   10
E range min (V)     -10.000
E range max (V)     10.000
I Range             Auto
I Range min         Unset
I Range max         Unset
I Range init        Unset
Bandwidth           8
E2 (V)              -0.600
vs.                 Ref
nc cycles           2
Reverse Scan        1
Ef (V)              0.000
vs.                 Eoc

mode	ox/red	error	control changes	counter inc.	time/s	control/V	Ewe/V	<I>/mA	cycle number	(Q-Qo)/C	P/W
2	1	0	0	1	351.642	-0.60016	-0.600375	-0.00560554	2	-2.37554e-05	3.36543e-06
2	1	0	0	1	351.76	-0.588338	-0.588566	-0.0046149	2	-2.43285e-05	2.71617e-06
2	1	0	1	1	351.894	-0.574997	-0.575211	-0.0041892	2	-2.4909e-05	2.40967e-06
2	1	0	1	1	352.027	-0.561682	-0.561902	-0.00385429	2	-2.54387e-05	2.16573e-06
2	1	0	0	1	352.16	-0.54834	-0.548545	-0.00358503	2	-2.5929e-05	1.96655e-06
2	1	0	0	1	352.293	-0.535018	-0.53521	-0.00335037	2	-2.63852e-05	1.79315e-06
2	1	0	0	1	352.427	-0.521697	-0.521903	-0.00315055	2	-2.68129e-05	1.64428e-06
2	1	0	1	1	352.56	-0.508362	-0.508587	-0.00297394	2	-2.72161e-05	1.51251e-06
2	1	0	1	1	352.693	-0.49504	-0.49524	-0.0028163	2	-2.75965e-05	1.39475e-06
2	1	0	0	1	352.827	-0.481699	-0.481914	-0.00267149	2	-2.79575e-05	1.28743e-06
2	1	0	0	1	352.96	-0.468377	-0.468586	-0.00254019	2	-2.82995e-05	1.1903e-06
2	1	0	1	1	353.093	-0.455051	-0.455222	-0.00241511	2	-2.86247e-05	1.09941e-06
2	1	0	1	1	353.226	-0.441721	-0.441915	-0.00230267	2	-2.89344e-05	1.01759e-06
2	1	0	1	1	353.36	-0.428399	-0.428596	-0.00219451	2	-2.92289e-05	9.40559e-07
2	1	0	0	1	353.493	-0.415058	-0.41527	-0.00209138	2	-2.95098e-05	8.68486e-07
2	1	0	0	1	353.626	-0.401738	-0.401963	-0.00199014	2	-2.97766e-05	7.99965e-07
2	1	0	1	1	353.76	-0.388401	-0.388621	-0.00189511	2	-3.00307e-05	7.36481e-07
2	1	0	1	1	353.893	-0.375079	-0.375279	-0.0018014	2	-3.02719e-05	6.76026e-07
2	1	0	1	1	354.026	-0.361758	-0.361966	-0.00170929	2	-3.05007e-05	6.18706e-07
2	1	0	0	1	354.159	-0.348416	-0.348621	-0.00161761	2	-3.07178e-05	5.63933e-07
2	1	0	0	1	354.293	-0.335101	-0.335275	-0.00152843	2	-3.09224e-05	5.12445e-07
2	1	0	1	1	354.426	-0.32176	-0.32193	-0.00143518	2	-3.11152e-05	4.62028e-07
2	1	0	1	1	354.559	-0.308438	-0.308627	-0.0013389	2	-3.12952e-05	4.1322e-07
2	1	0	1	1	354.692	-0.295117	-0.295281	-0.00123482	2	-3.14619e-05	3.6462e-07
2	1	0	0	1	354.826	-0.281782	-0.281927	-0.00112225	2	-3.16143e-05	3.16391e-07
2	1	0	0	1	354.959	-0.26846	-0.268612	-0.000992906	2	-3.17505e-05	2.66706e-07
2	1	0	1	1	355.092	-0.255119	-0.255285	-0.000842738	2	-3.18681e-05	2.15138e-07
2	1	0	1	1	355.226	-0.241797	-0.241958	-0.000656166	2	-3.19634e-05	1.58764e-07
2	1	0	0	1	355.359	-0.228471	-0.228641	-0.000434927	2	-3.20316e-05	9.9442e-08
2	1	0	0	1	355.522	-0.212142	-0.212283	-7.05379e-05	2	-3.20728e-05	1.4974e-08
2	1	0	0	1	355.655	-0.19882	-0.198918	0.000261238	2	-3.20586e-05	5.19649e-08
2	1	0	1	1	355.789	-0.185478	-0.185606	0.000604577	2	-3.1999e-05	1.12213e-07
2	1	0	1	1	355.922	-0.172157	-0.172229	0.000904408	2	-3.18958e-05	1.55765e-07
2	1	0	0	1	356.089	-0.155497	-0.155591	0.00110141	2	-3.17223e-05	1.7137e-07
2	1	0	1	1	356.222	-0.142162	-0.142273	0.00113372	2	-3.15671e-05	1.61299e-07
2	1	0	1	1	356.355	-0.12884	-0.128956	0.00109072	2	-3.14133e-05	1.40655e-07
2	1	0	1	1	356.488	-0.115518	-0.115597	0.00100575	2	-3.12688e-05	1.16261e-07
2	1	0	0	1	356.622	-0.102177	-0.102278	0.000910785	2	-3.11365e-05	9.31535e-08
2	1	0	0	1	356.755	-0.0888619	-0.0889737	0.000829674	2	-3.10159e-05	7.38192e-08
2	1	0	1	1	356.888	-0.0755203	-0.0756511	0.00077037	2	-3.09044e-05	5.82793e-08
2	1	0	1	1	357.022	-0.0621987	-0.0623105	0.000724558	2	-3.08001e-05	4.51476e-08
2	1	0	1	1	357.155	-0.0488772	-0.0490007	0.000692612	2	-3.0701e-05	3.39385e-08
2	1	0	0	1	357.288	-0.03554	-0.0356399	0.000667914	2	-3.06055e-05	2.38044e-08
2	1	0	0	1	357.421	-0.0222206	-0.0223147	0.000655769	2	-3.05126e-05	1.46333e-08
2	1	0	1	1	357.555	-0.00887906	-0.00900796	0.000646058	2	-3.04212e-05	5.81967e-09
2	1	0	1	1	357.688	0.00444252	0.00434342	0.000640352	2	-3.03309e-05	2.78132e-09
2	1	0	0	1	357.821	0.0177708	0.0176832	0.000639171	2	-3.02409e-05	1.13026e-08
2	1	0	0	1	357.955	0.031099	0.030999	0.000640771	2	-3.01508e-05	1.98632e-08
2	1	0	0	1	358.088	0.0444206	0.0443423	0.00064515	2	-3.00604e-05	2.86074e-08
2	1	0	1	1	358.221	0.0577622	0.0577181	0.000650849	2	-2.99691e-05	3.75657e-08
2	1	0	1	1	358.354	0.0710838	0.0710412	0.000660215	2	-2.9877e-05	4.69025e-08
2	1	0	0	1	358.488	0.0844187	0.0843439	0.000669496	2	-2.97836e-05	5.64679e-08
2	1	0	0	1	358.621	0.0977402	0.0976606	0.000681304	2	-2.96889e-05	6.65366e-08
2	0	0	0	1	358.695	0.0947347	0.0946498	0.000342354	2	-2.96538e-05	3.24037e-08
2	0	0	0	1	358.858	0.0784143	0.0782938	8.30139e-05	2	-2.96225e-05	6.49948e-09
2	0	0	0	1	358.991	0.0650927	0.0649986	-6.19899e-05	2	-2.96232e-05	4.02926e-09
2	0	0	1	1	359.125	0.0517534	0.0516356	-0.000188992	2	-2.96418e-05	9.75873e-09
2	0	0	1	1	359.258	0.0384362	0.0382863	-0.000302155	2	-2.96764e-05	1.15684e-08
2	0	0	0	1	359.391	0.0250946	0.02494	-0.000408449	2	-2.97257e-05	1.01867e-08
2	0	0	0	1	359.525	0.0117731	0.0116161	-0.000506179	2	-2.97883e-05	5.87981e-09
2	0	0	0	1	359.658	-0.00154852	-0.00175943	-0.000598722	2	-2.98636e-05	1.05341e-09
2	0	0	1	1	359.791	-0.0148834	-0.0150907	-0.00068518	2	-2.9951e-05	1.03398e-08
2	0	0	1	1	359.924	-0.028205	-0.0283964	-0.000767701	2	-3.00495e-05	2.17999e-08
2	0	0	0	1	360.058	-0.0415466	-0.0417653	-0.000848842	2	-3.0159e-05	3.54521e-08
2	0	0	0	1	360.191	-0.0548682	-0.0551082	-0.000924728	2	-3.02788e-05	5.09601e-08
2	0	0	1	1	360.341	-0.0698709	-0.0700322	-0.00099393	2	-3.0426e-05	6.96071e-08
2	0	0	0	1	360.491	-0.0848634	-0.085002	-0.00106622	2	-3.05852e-05	9.06311e-08
2	0	0	0	1	360.624	-0.098185	-0.0983203	-0.00114278	2	-3.07373e-05	1.12358e-07
2	0	0	0	1	360.757	-0.111507	-0.111624	-0.00122116	2	-3.08995e-05	1.3631e-07
2	0	0	1	1	360.891	-0.124848	-0.124978	-0.00131102	2	-3.10732e-05	1.63849e-07
2	0	0	1	1	361.024	-0.138163	-0.138334	-0.00141668	2	-3.12594e-05	1.95976e-07
2	0	0	0	1	361.157	-0.151505	-0.151655	-0.00155092	2	-3.14618e-05	2.35204e-07
2	0	0	0	1	361.291	-0.164826	-0.164999	-0.00173577	2	-3.16851e-05	2.864e-07
2	0	0	0	1	361.424	-0.178148	-0.178305	-0.00199092	2	-3.19375e-05	3.54991e-07
2	0	0	1	1	361.557	-0.191485	-0.191639	-0.00232283	2	-3.22294e-05	4.45146e-07
2	0	0	1	1	361.69	-0.204804	-0.204977	-0.00272747	2	-3.25703e-05	5.59067e-07
2	0	0	0	1	361.824	-0.218146	-0.218317	-0.00315658	2	-3.29682e-05	6.89135e-07
2	0	0	0	1	361.957	-0.231468	-0.231647	-0.00353191	2	-3.34196e-05	8.18157e-07
2	0	0	1	1	362.09	-0.244796	-0.244963	-0.00377667	2	-3.39131e-05	9.25144e-07
2	0	0	1	1	362.224	-0.258124	-0.258283	-0.00387545	2	-3.44298e-05	1.00096e-06
2	0	0	1	1	362.357	-0.271446	-0.271598	-0.00385217	2	-3.49502e-05	1.04624e-06
2	0	0	0	1	362.49	-0.284787	-0.284912	-0.00376251	2	-3.54635e-05	1.07198e-06
2	0	0	0	1	362.623	-0.298109	-0.298292	-0.00366253	2	-3.59627e-05	1.0925e-06
2	0	0	1	1	362.757	-0.311444	-0.311617	-0.00356853	2	-3.64494e-05	1.11202e-06
2	0	0	1	1	362.89	-0.324765	-0.32493	-0.0034904	2	-3.6924e-05	1.13413e-06
2	0	0	1	1	363.023	-0.338087	-0.33827	-0.0034399	2	-3.739e-05	1.16361e-06
2	0	0	0	1	363.157	-0.351428	-0.351638	-0.00340455	2	-3.78511e-05	1.19717e-06
2	0	0	0	1	363.29	-0.364743	-0.364931	-0.0033935	2	-3.83085e-05	1.23839e-06
2	0	0	1	1	363.423	-0.378085	-0.378275	-0.00339168	2	-3.87659e-05	1.28299e-06
2	0	0	1	1	363.556	-0.391407	-0.391624	-0.0034083	2	-3.92237e-05	1.33477e-06
2	0	0	1	1	363.69	-0.404728	-0.404926	-0.00343109	2	-3.9684e-05	1.38934e-06
2	0	0	0	1	363.823	-0.418063	-0.418268	-0.00346726	2	-4.01488e-05	1.45024e-06
2	0	0	0	1	363.956	-0.431385	-0.431571	-0.00350631	2	-4.0618e-05	1.51322e-06
2	0	0	1	1	364.09	-0.444726	-0.444931	-0.00355848	2	-4.10939e-05	1.58328e-06
2	0	0	1	1	364.223	-0.458048	-0.45822	-0.00361237	2	-4.15761e-05	1.65526e-06
2	0	0	0	1	364.356	-0.471376	-0.471599	-0.00368178	2	-4.2067e-05	1.73632e-06
2	0	0	0	1	364.489	-0.484704	-0.484913	-0.00375222	2	-4.25675e-05	1.8195e-06
2	0	0	0	1	364.623	-0.498026	-0.498225	-0.00384388	2	-4.30782e-05	1.91512e-06
2	0	0	1	1	364.756	-0.511368	-0.511587	-0.00393894	2	-4.36018e-05	2.01511e-06
2	0	0	1	1	364.889	-0.524687	-0.524888	-0.00405705	2	-4.41389e-05	2.1295e-06
2	0	0	0	1	365.023	-0.538024	-0.5382	-0.00419271	2	-4.46937e-05	2.25652e-06
2	0	0	0	1	365.156	-0.551346	-0.551535	-0.00434614	2	-4.52669e-05	2.39705e-06
2	0	0	0	1	365.289	-0.564667	-0.564881	-0.00453092	2	-4.58629e-05	2.55943e-06
2	0	0	1	1	365.422	-0.578009	-0.578234	-0.00474195	2	-4.64861e-05	2.74195e-06
2	0	0	1	1	365.556	-0.591324	-0.591525	-0.00498854	2	-4.7139e-05	2.95084e-06
2	0	0	1	1	365.641	-0.599827	-0.600047	-0.00516623	2	-4.75733e-05	3.09998e-06