File: TAP_Report/Data/MB_PB/100 uM MB 10mM PB  second ito_04_CV_C01_2.mpt
EC-Lab ASCII FILE
Nb header lines : 53

Cyclic Voltammetry

Run on channel : 1 (SN 0696)
User :
Electrode connection : standard
Ewe ctrl range : min = -10.00 V, max = 10.00 V
Ewe,I filtering : 50 kHz
Channel : Grounded
Acquisition started on : 05/17/2017 12:39:23
Saved on :
	File : 100 uM MB 10mM PB  second ito_04_CV_C01.mpr
	Directory : \\userfs\st659\w2k\EC-Lab\Data\ITO Characterisation 17-5-17\
	Host : 144.32.136.43
Device : SP-300 (SN 0182)
Address : USB
EC-Lab for windows v10.44 (software)
Internet server v10.44 (firmware)
Command interpretor v10.44 (firmware)
Electrode material :
Initial state :
Electrolyte :
Comments :
Cable : standard
Electrode surface area : 0.001 cm²
Characteristic mass : 0.001 g
Equivalent Weight : 0.000 g/eq.
Density : 0.000 g/cm3
Ei (V)              0.000
vs.                 Eoc
dE/dt               250.000
dE/dt unit          mV/s
E1 (V)              0.100
vs.                 Ref
Step percent        50
N                   10
E range min (V)     -10.000
E range max (V)     10.000
I Range             Auto
I Range min         Unset
I Range max         Unset
I Range init        Unset
Bandwidth           8
E2 (V)              -0.600
vs.                 Ref
nc cycles           2
Reverse Scan        1
Ef (V)              0.000
vs.                 Eoc

mode	ox/red	error	control changes	counter inc.	time/s	control/V	Ewe/V	<I>/mA	cycle number	(Q-Qo)/C	P/W
2	1	0	0	1	394.246	-0.60016	-0.600405	-0.00700739	2	-1.28456e-05	4.20727e-06
2	1	0	1	1	394.294	-0.588315	-0.588539	-0.00528848	2	-1.31157e-05	3.11248e-06
2	1	0	1	1	394.347	-0.57502	-0.575256	-0.00474152	2	-1.33793e-05	2.72759e-06
2	1	0	0	1	394.4	-0.561658	-0.56189	-0.00433359	2	-1.36189e-05	2.435e-06
2	1	0	0	1	394.454	-0.548363	-0.548579	-0.00400713	2	-1.38383e-05	2.19823e-06
2	1	0	1	1	394.507	-0.535018	-0.535224	-0.00373166	2	-1.40426e-05	1.99728e-06
2	1	0	1	1	394.56	-0.521707	-0.521935	-0.0034937	2	-1.42325e-05	1.82348e-06
2	1	0	0	1	394.614	-0.508362	-0.508582	-0.00328513	2	-1.44113e-05	1.67076e-06
2	1	0	1	1	394.667	-0.495017	-0.495226	-0.00309686	2	-1.45794e-05	1.53364e-06
2	1	0	1	1	394.72	-0.481717	-0.481943	-0.00292543	2	-1.47374e-05	1.40989e-06
2	1	0	0	1	394.774	-0.468361	-0.468586	-0.00276738	2	-1.48871e-05	1.29676e-06
2	1	0	0	1	394.827	-0.455066	-0.455252	-0.00261672	2	-1.50281e-05	1.19127e-06
2	1	0	1	1	394.88	-0.441721	-0.441934	-0.0024805	2	-1.5162e-05	1.09621e-06
2	1	0	1	1	394.933	-0.428409	-0.428608	-0.00234454	2	-1.52881e-05	1.00489e-06
2	1	0	0	1	394.987	-0.415064	-0.415274	-0.00221541	2	-1.54077e-05	9.20001e-07
2	1	0	1	1	395.04	-0.401719	-0.401925	-0.0020916	2	-1.55205e-05	8.40667e-07
2	1	0	1	1	395.093	-0.388408	-0.388621	-0.00196941	2	-1.56263e-05	7.65355e-07
2	1	0	0	1	395.147	-0.375063	-0.375271	-0.00184808	2	-1.5726e-05	6.93529e-07
2	1	0	0	1	395.2	-0.361768	-0.361975	-0.00173035	2	-1.5819e-05	6.26345e-07
2	1	0	1	1	395.253	-0.348406	-0.348625	-0.00160496	2	-1.59059e-05	5.5953e-07
2	1	0	1	1	395.307	-0.335111	-0.335307	-0.00148606	2	-1.5986e-05	4.98287e-07
2	1	0	0	1	395.36	-0.321766	-0.321943	-0.0013579	2	-1.60597e-05	4.37165e-07
2	1	0	1	1	395.413	-0.308422	-0.308613	-0.0012207	2	-1.61264e-05	3.76724e-07
2	1	0	1	1	395.467	-0.29511	-0.295283	-0.00106347	2	-1.61851e-05	3.14024e-07
2	1	0	0	1	395.52	-0.281765	-0.281924	-0.000896368	2	-1.62353e-05	2.52708e-07
2	1	0	0	1	395.573	-0.26847	-0.268636	-0.000698747	2	-1.62757e-05	1.87709e-07
2	1	0	1	1	395.627	-0.255109	-0.255288	-0.000467025	2	-1.63047e-05	1.19226e-07
2	1	0	1	1	395.68	-0.241814	-0.241983	-0.000184647	2	-1.63201e-05	4.46815e-08
2	1	0	0	1	395.733	-0.228469	-0.228659	0.000138847	2	-1.63193e-05	3.17485e-08
2	1	0	0	1	395.786	-0.215157	-0.215349	0.000512506	2	-1.63e-05	1.10368e-07
2	1	0	1	1	395.84	-0.201812	-0.201983	0.000917899	2	-1.62596e-05	1.854e-07
2	1	0	0	1	395.893	-0.188467	-0.188636	0.00133722	2	-1.61973e-05	2.52248e-07
2	1	0	0	1	395.946	-0.175167	-0.175357	0.00171499	2	-1.61135e-05	3.00736e-07
2	1	0	1	1	396	-0.161811	-0.161978	0.00203168	2	-1.60108e-05	3.29089e-07
2	1	0	1	1	396.053	-0.148516	-0.148678	0.00222804	2	-1.58948e-05	3.3126e-07
2	1	0	0	1	396.106	-0.135171	-0.135319	0.00231184	2	-1.57708e-05	3.12836e-07
2	1	0	0	1	396.16	-0.121859	-0.122002	0.00228965	2	-1.56461e-05	2.79342e-07
2	1	0	1	1	396.213	-0.108514	-0.108648	0.00219685	2	-1.55239e-05	2.38684e-07
2	1	0	0	1	396.266	-0.0951695	-0.0953128	0.00207464	2	-1.54078e-05	1.9774e-07
2	1	0	0	1	396.32	-0.0818579	-0.0820199	0.00196172	2	-1.52983e-05	1.609e-07
2	1	0	1	1	396.373	-0.068513	-0.0686784	0.0018505	2	-1.51945e-05	1.2709e-07
2	1	0	1	1	396.426	-0.0552181	-0.0553983	0.00177235	2	-1.5096e-05	9.81854e-08
2	1	0	0	1	396.48	-0.0418565	-0.0420106	0.00171234	2	-1.50011e-05	7.19364e-08
2	1	0	0	1	396.533	-0.0285616	-0.0287154	0.00166032	2	-1.49095e-05	4.76766e-08
2	1	0	1	1	396.586	-0.0152166	-0.0153795	0.00161787	2	-1.482e-05	2.48819e-08
2	1	0	0	1	396.64	-0.00187173	-0.00203296	0.00159161	2	-1.47323e-05	3.23568e-09
2	1	0	0	1	396.693	0.0114399	0.0113098	0.00157237	2	-1.4646e-05	1.77832e-08
2	1	0	1	1	396.746	0.0247848	0.0246586	0.00155649	2	-1.45603e-05	3.83808e-08
2	1	0	1	1	396.799	0.0380797	0.0379514	0.0015513	2	-1.44755e-05	5.88741e-08
2	1	0	0	1	396.853	0.0514412	0.0513358	0.00155293	2	-1.43903e-05	7.97212e-08
2	1	0	0	1	396.906	0.0647362	0.0646524	0.00155146	2	-1.43056e-05	1.00306e-07
2	1	0	1	1	396.959	0.0780811	0.0779996	0.00156348	2	-1.42202e-05	1.21951e-07
2	1	0	1	1	397.013	0.0913927	0.0912782	0.00156763	2	-1.41348e-05	1.4309e-07
2	0	0	1	1	397.055	0.0980735	0.0979433	0.00100901	2	-1.40714e-05	9.88261e-08
2	0	0	1	1	397.108	0.0847619	0.0846224	0.000554287	2	-1.40353e-05	4.69051e-08
2	0	0	0	1	397.161	0.071417	0.0712806	0.000332642	2	-1.40141e-05	2.37109e-08
2	0	0	1	1	397.215	0.0580721	0.0579712	0.00015475	2	-1.40034e-05	8.97104e-09
2	0	0	0	1	397.298	0.0371134	0.0368841	-0.000122779	2	-1.40047e-05	4.52859e-09
2	0	0	1	1	397.352	0.0237685	0.0235295	-0.000262728	2	-1.40154e-05	6.18185e-09
2	0	0	0	1	397.405	0.0104236	0.0101857	-0.000391671	2	-1.40331e-05	3.98946e-09
2	0	0	0	1	397.458	-0.00288801	-0.00317946	-0.000513148	2	-1.40576e-05	1.63153e-09
2	0	0	1	1	397.512	-0.0162329	-0.016513	-0.000629872	2	-1.40885e-05	1.04011e-08
2	0	0	1	1	397.565	-0.0295279	-0.029797	-0.000744436	2	-1.41253e-05	2.2182e-08
2	0	0	0	1	397.618	-0.0428783	-0.043165	-0.000858812	2	-1.41684e-05	3.70706e-08
2	0	0	0	1	397.672	-0.0561844	-0.0564855	-0.000966358	2	-1.42172e-05	5.45852e-08
2	0	0	0	1	397.756	-0.0771764	-0.0773892	-0.00110447	2	-1.43054e-05	8.54742e-08
2	0	0	1	1	397.809	-0.0905379	-0.0907117	-0.00121758	2	-1.43696e-05	1.10449e-07
2	0	0	1	1	397.862	-0.103833	-0.104013	-0.00133991	2	-1.44397e-05	1.39368e-07
2	0	0	0	1	397.916	-0.117178	-0.117352	-0.00147102	2	-1.45168e-05	1.72627e-07
2	0	0	1	1	397.969	-0.130506	-0.130692	-0.00162601	2	-1.46014e-05	2.12507e-07
2	0	0	1	1	398.022	-0.143834	-0.144043	-0.00181039	2	-1.4695e-05	2.60773e-07
2	0	0	0	1	398.076	-0.157179	-0.157374	-0.00204378	2	-1.47998e-05	3.21637e-07
2	0	0	0	1	398.129	-0.170474	-0.170697	-0.00234877	2	-1.49185e-05	4.00928e-07
2	0	0	1	1	398.182	-0.183836	-0.184063	-0.00273343	2	-1.5056e-05	5.03123e-07
2	0	0	1	1	398.235	-0.197131	-0.197337	-0.00319265	2	-1.52156e-05	6.30027e-07
2	0	0	0	1	398.289	-0.210476	-0.210694	-0.00371855	2	-1.54021e-05	7.83476e-07
2	0	0	0	1	398.342	-0.223787	-0.224021	-0.00425108	2	-1.56164e-05	9.5233e-07
2	0	0	1	1	398.395	-0.237132	-0.237354	-0.00475165	2	-1.58594e-05	1.12782e-06
2	0	0	0	1	398.449	-0.250477	-0.2507	-0.0051444	2	-1.61267e-05	1.2897e-06
2	0	0	0	1	398.502	-0.263789	-0.264004	-0.00540763	2	-1.641e-05	1.42764e-06
2	0	0	1	1	398.555	-0.277133	-0.277317	-0.00548903	2	-1.67037e-05	1.5222e-06
2	0	0	1	1	398.609	-0.290428	-0.290611	-0.00546467	2	-1.69977e-05	1.58809e-06
2	0	0	0	1	398.662	-0.303773	-0.303995	-0.00534173	2	-1.72886e-05	1.62386e-06
2	0	0	0	1	398.715	-0.317085	-0.317314	-0.00520956	2	-1.75714e-05	1.65307e-06
2	0	0	1	1	398.769	-0.33043	-0.330649	-0.00505514	2	-1.78473e-05	1.67148e-06
2	0	0	0	1	398.822	-0.343775	-0.344026	-0.00492583	2	-1.81161e-05	1.69461e-06
2	0	0	0	1	398.875	-0.357086	-0.35733	-0.00484023	2	-1.83781e-05	1.72956e-06
2	0	0	1	1	398.929	-0.370431	-0.370658	-0.00477581	2	-1.86366e-05	1.77019e-06
2	0	0	1	1	398.982	-0.383726	-0.383984	-0.00473676	2	-1.88914e-05	1.81884e-06
2	0	0	0	1	399.035	-0.397088	-0.39735	-0.00471332	2	-1.91456e-05	1.87284e-06
2	0	0	0	1	399.088	-0.410383	-0.410616	-0.00470479	2	-1.93981e-05	1.93186e-06
2	0	0	1	1	399.142	-0.423728	-0.423978	-0.00471766	2	-1.9652e-05	2.00018e-06
2	0	0	0	1	399.195	-0.437056	-0.437296	-0.00474639	2	-1.99062e-05	2.07558e-06
2	0	0	0	1	399.248	-0.450384	-0.450594	-0.00478125	2	-2.01624e-05	2.1544e-06
2	0	0	1	1	399.302	-0.463729	-0.463914	-0.0048324	2	-2.04212e-05	2.24182e-06
2	0	0	1	1	399.355	-0.477024	-0.477256	-0.00490147	2	-2.06822e-05	2.33926e-06
2	0	0	0	1	399.408	-0.490385	-0.490611	-0.0049672	2	-2.09479e-05	2.43696e-06
2	0	0	0	1	399.462	-0.50368	-0.503907	-0.00505613	2	-2.12168e-05	2.54782e-06
2	0	0	1	1	399.515	-0.517025	-0.517242	-0.00515647	2	-2.14915e-05	2.66715e-06
2	0	0	1	1	399.568	-0.530337	-0.530551	-0.0052716	2	-2.17712e-05	2.79685e-06
2	0	0	0	1	399.622	-0.543682	-0.543935	-0.00541707	2	-2.20588e-05	2.94653e-06
2	0	0	1	1	399.675	-0.557027	-0.557274	-0.00558729	2	-2.23546e-05	3.11365e-06
2	0	0	1	1	399.728	-0.570338	-0.570589	-0.00578971	2	-2.26591e-05	3.30354e-06
2	0	0	0	1	399.782	-0.583683	-0.583931	-0.00602095	2	-2.29764e-05	3.51582e-06
2	0	0	0	1	399.835	-0.596978	-0.597207	-0.00628904	2	-2.33059e-05	3.75586e-06
2	0	0	1	1	399.846	-0.599827	-0.600062	-0.00635809	2	-2.33783e-05	3.81524e-06