File: TAP_Report/Data/MB_PB/100 uM MB 10mM PB  second ito_01_CV_C01_2.mpt
EC-Lab ASCII FILE
Nb header lines : 53

Cyclic Voltammetry

Run on channel : 1 (SN 0696)
User :
Electrode connection : standard
Ewe ctrl range : min = -10.00 V, max = 10.00 V
Ewe,I filtering : 50 kHz
Channel : Grounded
Acquisition started on : 05/17/2017 12:39:23
Saved on :
	File : 100 uM MB 10mM PB  second ito_01_CV_C01.mpr
	Directory : \\userfs\st659\w2k\EC-Lab\Data\ITO Characterisation 17-5-17\
	Host : 144.32.136.43
Device : SP-300 (SN 0182)
Address : USB
EC-Lab for windows v10.44 (software)
Internet server v10.44 (firmware)
Command interpretor v10.44 (firmware)
Electrode material :
Initial state :
Electrolyte :
Comments :
Cable : standard
Electrode surface area : 0.001 cm²
Characteristic mass : 0.001 g
Equivalent Weight : 0.000 g/eq.
Density : 0.000 g/cm3
Ei (V)              0.000
vs.                 Eoc
dE/dt               20.000
dE/dt unit          mV/s
E1 (V)              0.100
vs.                 Ref
Step percent        50
N                   10
E range min (V)     -10.000
E range max (V)     10.000
I Range             Auto
I Range min         Unset
I Range max         Unset
I Range init        Unset
Bandwidth           8
E2 (V)              -0.600
vs.                 Ref
nc cycles           2
Reverse Scan        1
Ef (V)              0.000
vs.                 Eoc

mode	ox/red	error	control changes	counter inc.	time/s	control/V	Ewe/V	<I>/mA	cycle number	(Q-Qo)/C	P/W
2	1	0	0	1	51.9062	-0.598327	-0.598518	-0.0047316	2	-0.000105274	2.83195e-06
2	1	0	0	1	52.5726	-0.584999	-0.585202	-0.00419612	2	-0.000108217	2.45558e-06
2	1	0	0	1	53.239	-0.571671	-0.571854	-0.00383861	2	-0.000110873	2.19512e-06
2	1	0	0	1	53.9054	-0.558343	-0.558552	-0.00355145	2	-0.000113318	1.98367e-06
2	1	0	0	1	54.5718	-0.545015	-0.545206	-0.00331217	2	-0.000115589	1.80581e-06
2	1	0	0	1	55.2382	-0.531687	-0.531872	-0.00312111	2	-0.000117717	1.66003e-06
2	1	0	0	1	55.9046	-0.518359	-0.518566	-0.00294826	2	-0.000119723	1.52886e-06
2	1	0	0	1	56.571	-0.505031	-0.505203	-0.00280398	2	-0.000121622	1.41658e-06
2	1	0	1	1	57.2375	-0.491701	-0.491892	-0.0026685	2	-0.000123428	1.31261e-06
2	1	0	1	1	57.9039	-0.478373	-0.478559	-0.00254724	2	-0.000125149	1.21901e-06
2	1	0	1	1	58.5703	-0.465045	-0.465186	-0.00243718	2	-0.000126792	1.13374e-06
2	1	0	1	1	59.2367	-0.451717	-0.451885	-0.00233662	2	-0.000128365	1.05588e-06
2	1	0	1	1	59.9031	-0.438389	-0.438578	-0.00224196	2	-0.000129874	9.83272e-07
2	1	0	1	1	60.5696	-0.425059	-0.425254	-0.00215131	2	-0.00013132	9.14853e-07
2	1	0	1	1	61.236	-0.411731	-0.411906	-0.00207079	2	-0.00013271	8.5297e-07
2	1	0	1	1	61.9024	-0.398403	-0.398586	-0.00199261	2	-0.000134047	7.94227e-07
2	1	0	1	1	62.5688	-0.385075	-0.385284	-0.001918	2	-0.000135333	7.38976e-07
2	1	0	1	1	63.2352	-0.371747	-0.371915	-0.0018452	2	-0.000136569	6.86256e-07
2	1	0	1	1	63.9016	-0.358419	-0.358592	-0.00177734	2	-0.000137759	6.37341e-07
2	1	0	1	1	64.568	-0.345091	-0.345275	-0.00170779	2	-0.000138902	5.89659e-07
2	1	0	1	1	65.2344	-0.331763	-0.331915	-0.00164004	2	-0.00014	5.44355e-07
2	1	0	1	1	65.9008	-0.318435	-0.318599	-0.00157394	2	-0.000141053	5.01455e-07
2	1	0	1	1	66.5672	-0.305107	-0.305259	-0.00150688	2	-0.000142062	4.59987e-07
2	1	0	1	1	67.2336	-0.291779	-0.291904	-0.00143868	2	-0.000143026	4.19956e-07
2	1	0	0	1	67.9001	-0.278449	-0.278597	-0.00136977	2	-0.000143945	3.81616e-07
2	1	0	0	1	68.5665	-0.265121	-0.265287	-0.00129149	2	-0.000144814	3.42616e-07
2	1	0	0	1	69.2329	-0.251793	-0.251958	-0.00120358	2	-0.000145629	3.03251e-07
2	1	0	0	1	69.8993	-0.238465	-0.238645	-0.00109615	2	-0.000146379	2.61591e-07
2	1	0	0	1	70.5657	-0.225137	-0.225316	-0.000955157	2	-0.000147046	2.15212e-07
2	1	0	0	1	71.2322	-0.211807	-0.211961	-0.000763524	2	-0.000147604	1.61837e-07
2	1	0	0	1	71.9236	-0.197979	-0.198119	-0.000509152	2	-0.000148027	1.00873e-07
2	1	0	0	1	72.615	-0.184151	-0.184318	-0.000256439	2	-0.000148272	4.72662e-08
2	1	0	0	1	73.2814	-0.170823	-0.170983	-9.70709e-05	2	-0.000148367	1.65974e-08
2	1	0	0	1	73.9478	-0.157495	-0.157618	-5.94634e-05	2	-0.000148397	9.37252e-09
2	1	0	0	1	74.6142	-0.144167	-0.144311	-0.000106708	2	-0.000148435	1.53991e-08
2	1	0	0	1	75.2806	-0.130839	-0.130987	-0.000174897	2	-0.000148514	2.29092e-08
2	1	0	0	1	75.947	-0.117511	-0.117632	-0.000232572	2	-0.000148635	2.73579e-08
2	1	0	0	1	76.6134	-0.104183	-0.104313	-0.00027444	2	-0.000148788	2.86275e-08
2	1	0	0	1	77.2798	-0.0908554	-0.0909674	-0.000301032	2	-0.000148965	2.73841e-08
2	1	0	0	1	77.9462	-0.0775271	-0.0776927	-0.000318802	2	-0.000149156	2.47686e-08
2	1	0	0	1	78.6126	-0.0641993	-0.0643653	-0.00032812	2	-0.000149356	2.11196e-08
2	1	0	1	1	79.2791	-0.0508693	-0.051035	-0.000332656	2	-0.000149561	1.69771e-08
2	1	0	1	1	79.9455	-0.037541	-0.0376984	-0.000332528	2	-0.000149767	1.25358e-08
2	1	0	1	1	80.6119	-0.0242132	-0.0243633	-0.000329645	2	-0.000149973	8.03123e-09
2	1	0	1	1	81.2783	-0.010885	-0.0110449	-0.000324088	2	-0.000150175	3.57953e-09
2	1	0	1	1	81.9447	0.00244284	0.00227929	-0.000315122	2	-0.000150372	7.18255e-10
2	1	0	1	1	82.6112	0.0157729	0.0156697	-0.000304987	2	-0.000150564	4.77905e-09
2	1	0	1	1	83.2776	0.0291011	0.0289855	-0.00029313	2	-0.000150747	8.49652e-09
2	1	0	1	1	83.944	0.0424289	0.0423135	-0.000278481	2	-0.000150922	1.17835e-08
2	1	0	1	1	84.6104	0.0557567	0.0556679	-0.000261461	2	-0.000151087	1.4555e-08
2	1	0	1	1	85.2768	0.069085	0.0689856	-0.000244497	2	-0.000151241	1.68668e-08
2	1	0	1	1	85.9432	0.0824128	0.0823133	-0.000225187	2	-0.000151383	1.85359e-08
2	1	0	1	1	86.6096	0.095741	0.0956371	-0.000204379	2	-0.000151511	1.95462e-08
2	0	0	0	1	87.0766	0.0947423	0.0946198	-0.000285152	2	-0.000151621	2.6981e-08
2	0	0	0	1	87.743	0.081414	0.0813071	-0.000396893	2	-0.000151865	3.22703e-08
2	0	0	0	1	88.4094	0.0680862	0.0679776	-0.000479337	2	-0.000152173	3.25841e-08
2	0	0	0	1	89.0758	0.054758	0.054651	-0.000546287	2	-0.00015253	2.98551e-08
2	0	0	1	1	89.7423	0.041428	0.0412929	-0.000602543	2	-0.000152928	2.48808e-08
2	0	0	1	1	90.4087	0.0281002	0.0279731	-0.000651325	2	-0.000153361	1.82196e-08
2	0	0	1	1	91.0751	0.0147719	0.0146703	-0.000694383	2	-0.000153825	1.01868e-08
2	0	0	1	1	91.7415	0.00144411	0.00129581	-0.000734117	2	-0.000154316	9.51276e-10
2	0	0	1	1	92.408	-0.0118859	-0.0120466	-0.000769679	2	-0.000154832	9.272e-09
2	0	0	1	1	93.0744	-0.0252142	-0.0253634	-0.000802394	2	-0.000155371	2.03515e-08
2	0	0	1	1	93.7408	-0.038542	-0.0386913	-0.000834286	2	-0.000155932	3.22796e-08
2	0	0	1	1	94.4072	-0.0518702	-0.052053	-0.000864621	2	-0.000156514	4.50062e-08
2	0	0	1	1	95.0736	-0.065198	-0.065368	-0.000894189	2	-0.000157116	5.84514e-08
2	0	0	1	1	95.74	-0.0785258	-0.0787098	-0.000923263	2	-0.000157738	7.26699e-08
2	0	0	0	1	96.4397	-0.09252	-0.0926685	-0.000952571	2	-0.000158413	8.82733e-08
2	0	0	0	1	97.1062	-0.10585	-0.105982	-0.000983997	2	-0.000159075	1.04286e-07
2	0	0	0	1	97.7726	-0.119178	-0.119312	-0.00101921	2	-0.000159759	1.21605e-07
2	0	0	0	1	98.439	-0.132506	-0.132663	-0.00106199	2	-0.000160469	1.40886e-07
2	0	0	0	1	99.1054	-0.145834	-0.14601	-0.00112041	2	-0.000161213	1.6359e-07
2	0	0	0	1	99.7718	-0.159162	-0.159312	-0.00120976	2	-0.000162005	1.9273e-07
2	0	0	0	1	100.438	-0.17249	-0.172664	-0.0013525	2	-0.000162874	2.33528e-07
2	0	0	0	1	101.105	-0.185818	-0.185994	-0.00156948	2	-0.000163863	2.91914e-07
2	0	0	0	1	101.771	-0.199146	-0.199303	-0.00185078	2	-0.00016502	3.68867e-07
2	0	0	0	1	102.437	-0.212474	-0.212656	-0.00212696	2	-0.000166368	4.5231e-07
2	0	0	0	1	103.104	-0.225802	-0.225992	-0.00229415	2	-0.000167867	5.18459e-07
2	0	0	0	1	103.77	-0.23913	-0.239291	-0.00232874	2	-0.000169432	5.57247e-07
2	0	0	1	1	104.437	-0.25246	-0.252644	-0.00229512	2	-0.000170993	5.79847e-07
2	0	0	1	1	105.103	-0.265788	-0.265957	-0.00224727	2	-0.000172526	5.97679e-07
2	0	0	1	1	105.769	-0.279116	-0.279267	-0.00221282	2	-0.000174029	6.17968e-07
2	0	0	1	1	106.436	-0.292444	-0.292601	-0.00219096	2	-0.000175514	6.41078e-07
2	0	0	1	1	107.102	-0.305772	-0.305943	-0.00218142	2	-0.00017699	6.6739e-07
2	0	0	1	1	107.769	-0.319102	-0.319265	-0.00218566	2	-0.000178463	6.97804e-07
2	0	0	1	1	108.435	-0.33243	-0.332596	-0.00219981	2	-0.000179943	7.31647e-07
2	0	0	1	1	109.102	-0.345758	-0.34596	-0.00222152	2	-0.000181434	7.68555e-07
2	0	0	1	1	109.768	-0.359086	-0.359291	-0.00225434	2	-0.000182944	8.09965e-07
2	0	0	1	1	110.434	-0.372414	-0.372616	-0.00229171	2	-0.000184477	8.53927e-07
2	0	0	1	1	111.101	-0.385742	-0.385959	-0.00233496	2	-0.000186036	9.01197e-07
2	0	0	1	1	111.767	-0.39907	-0.399271	-0.00238334	2	-0.000187626	9.51596e-07
2	0	0	1	1	112.434	-0.412398	-0.412595	-0.00243787	2	-0.00018925	1.00585e-06
2	0	0	1	1	113.1	-0.425726	-0.425915	-0.0025004	2	-0.000190914	1.06496e-06
2	0	0	1	1	113.766	-0.439054	-0.439252	-0.00256842	2	-0.00019262	1.12819e-06
2	0	0	1	1	114.433	-0.452382	-0.452567	-0.00264549	2	-0.000194374	1.19726e-06
2	0	0	0	1	115.099	-0.465712	-0.465891	-0.00273322	2	-0.000196183	1.27338e-06
2	0	0	0	1	115.766	-0.47904	-0.479253	-0.00282812	2	-0.000198052	1.35539e-06
2	0	0	0	1	116.432	-0.492368	-0.492579	-0.00294041	2	-0.00019999	1.44838e-06
2	0	0	0	1	117.098	-0.505696	-0.505895	-0.00306082	2	-0.000202006	1.54845e-06
2	0	0	0	1	117.765	-0.519026	-0.519227	-0.00319622	2	-0.000204108	1.65956e-06
2	0	0	0	1	118.431	-0.532354	-0.532535	-0.003349	2	-0.000206307	1.78346e-06
2	0	0	0	1	119.098	-0.545682	-0.545867	-0.00352137	2	-0.000208612	1.9222e-06
2	0	0	0	1	119.764	-0.55901	-0.559231	-0.00370964	2	-0.000211036	2.07454e-06
2	0	0	0	1	120.431	-0.572338	-0.572546	-0.00391318	2	-0.000213592	2.24048e-06
2	0	0	0	1	121.097	-0.585666	-0.585877	-0.0041295	2	-0.000216287	2.41938e-06
2	0	0	0	1	121.747	-0.59866	-0.598875	-0.00435628	2	-0.00021906	2.60887e-06
2	1	0	1	0	121.822	-0.60016	-0.600356	-0.00438794	2	-0.000219392	2.63432e-06