File: TAP_Report/Data/MB_PB/100 uM MB 10mM PB  second ito_06_CV_C01_2.mpt
EC-Lab ASCII FILE
Nb header lines : 53

Cyclic Voltammetry

Run on channel : 1 (SN 0696)
User :
Electrode connection : standard
Ewe ctrl range : min = -10.00 V, max = 10.00 V
Ewe,I filtering : 50 kHz
Channel : Grounded
Acquisition started on : 05/17/2017 12:39:23
Saved on :
	File : 100 uM MB 10mM PB  second ito_06_CV_C01.mpr
	Directory : \\userfs\st659\w2k\EC-Lab\Data\ITO Characterisation 17-5-17\
	Host : 144.32.136.43
Device : SP-300 (SN 0182)
Address : USB
EC-Lab for windows v10.44 (software)
Internet server v10.44 (firmware)
Command interpretor v10.44 (firmware)
Electrode material :
Initial state :
Electrolyte :
Comments :
Cable : standard
Electrode surface area : 0.001 cm²
Characteristic mass : 0.001 g
Equivalent Weight : 0.000 g/eq.
Density : 0.000 g/cm3
Ei (V)              0.000
vs.                 Eoc
dE/dt               1000.000
dE/dt unit          mV/s
E1 (V)              0.100
vs.                 Ref
Step percent        50
N                   10
E range min (V)     -10.000
E range max (V)     10.000
I Range             Auto
I Range min         Unset
I Range max         Unset
I Range init        Unset
Bandwidth           8
E2 (V)              -0.600
vs.                 Ref
nc cycles           2
Reverse Scan        1
Ef (V)              0.000
vs.                 Eoc

mode	ox/red	error	control changes	counter inc.	time/s	control/V	Ewe/V	<I>/mA	cycle number	(Q-Qo)/C	P/W
2	1	0	1	1	420.577	-0.60016	-0.600432	-0.0110936	2	-5.48557e-06	6.66096e-06
2	1	0	1	1	420.589	-0.588265	-0.588483	-0.00686849	2	-5.58494e-06	4.04199e-06
2	1	0	1	1	420.602	-0.57507	-0.575292	-0.00542876	2	-5.66452e-06	3.12312e-06
2	1	0	0	1	420.615	-0.561675	-0.561882	-0.00459322	2	-5.73087e-06	2.58085e-06
2	1	0	1	1	420.629	-0.54828	-0.54847	-0.00399201	2	-5.78782e-06	2.1895e-06
2	1	0	1	1	420.642	-0.535085	-0.535284	-0.00353616	2	-5.83699e-06	1.89285e-06
2	1	0	0	1	420.655	-0.52169	-0.52192	-0.00315749	2	-5.88138e-06	1.64796e-06
2	1	0	1	1	420.669	-0.508295	-0.508516	-0.00283266	2	-5.92106e-06	1.44045e-06
2	1	0	1	1	420.682	-0.4951	-0.495277	-0.00254934	2	-5.9562e-06	1.26263e-06
2	1	0	0	1	420.695	-0.481705	-0.481923	-0.00230377	2	-5.98833e-06	1.11024e-06
2	1	0	1	1	420.709	-0.468311	-0.468533	-0.00206922	2	-6.01723e-06	9.69497e-07
2	1	0	1	1	420.722	-0.455116	-0.455295	-0.00185566	2	-6.04273e-06	8.44874e-07
2	1	0	0	1	420.735	-0.441721	-0.441924	-0.00166	2	-6.06592e-06	7.33596e-07
2	1	0	0	1	420.749	-0.428459	-0.428664	-0.00146507	2	-6.08609e-06	6.28023e-07
2	1	0	1	1	420.762	-0.415064	-0.415283	-0.00128463	2	-6.10417e-06	5.33486e-07
2	1	0	1	1	420.806	-0.371481	-0.371669	-0.000701636	2	-6.15061e-06	2.60777e-07
2	1	0	0	1	420.819	-0.358086	-0.358287	-0.000523129	2	-6.15862e-06	1.8743e-07
2	1	0	1	1	420.832	-0.344691	-0.344897	-0.000337761	2	-6.16419e-06	1.16492e-07
2	1	0	1	1	420.846	-0.331496	-0.33166	-0.000142261	2	-6.16717e-06	4.71823e-08
2	1	0	0	1	420.859	-0.318101	-0.318266	6.44234e-05	2	-6.16746e-06	2.05038e-08
2	1	0	1	1	420.872	-0.304706	-0.30486	0.000300915	2	-6.16481e-06	9.17372e-08
2	1	0	1	1	420.886	-0.291511	-0.291651	0.000569306	2	-6.15884e-06	1.66039e-07
2	1	0	0	1	420.899	-0.278116	-0.278265	0.000887458	2	-6.14893e-06	2.46949e-07
2	1	0	1	1	420.912	-0.264722	-0.264876	0.00124997	2	-6.13448e-06	3.31086e-07
2	1	0	1	1	420.926	-0.25146	-0.251631	0.00166725	2	-6.11498e-06	4.1953e-07
2	1	0	0	1	420.939	-0.238065	-0.238242	0.00216616	2	-6.08914e-06	5.16071e-07
2	1	0	0	1	420.952	-0.22487	-0.22506	0.00275555	2	-6.05654e-06	6.20164e-07
2	1	0	1	1	420.966	-0.211475	-0.211631	0.00339217	2	-6.01522e-06	7.17887e-07
2	1	0	0	1	420.979	-0.19808	-0.198217	0.00406506	2	-5.96509e-06	8.05763e-07
2	1	0	0	1	420.992	-0.184885	-0.185054	0.00466856	2	-5.90711e-06	8.63935e-07
2	1	0	1	1	421.006	-0.17149	-0.171635	0.00526526	2	-5.84024e-06	9.03701e-07
2	1	0	0	1	421.019	-0.158096	-0.158228	0.00572619	2	-5.76642e-06	9.06045e-07
2	1	0	0	1	421.032	-0.144901	-0.145041	0.00612856	2	-5.68778e-06	8.88892e-07
2	1	0	1	1	421.046	-0.131506	-0.13165	0.00636773	2	-5.60392e-06	8.38309e-07
2	1	0	0	1	421.059	-0.118111	-0.118232	0.00648969	2	-5.5175e-06	7.67289e-07
2	1	0	0	1	421.072	-0.104916	-0.105042	0.00649059	2	-5.43158e-06	6.81783e-07
2	1	0	1	1	421.086	-0.0915209	-0.0916151	0.00639328	2	-5.34505e-06	5.85721e-07
2	1	0	1	1	421.099	-0.0782593	-0.0784046	0.00619818	2	-5.26171e-06	4.85966e-07
2	1	0	0	1	421.112	-0.0648644	-0.0649886	0.0060295	2	-5.17937e-06	3.91849e-07
2	1	0	1	1	421.126	-0.0514695	-0.0516211	0.00576531	2	-5.10006e-06	2.97611e-07
2	1	0	1	1	421.139	-0.0382745	-0.0384031	0.00558946	2	-5.02495e-06	2.14652e-07
2	1	0	0	1	421.152	-0.0248796	-0.0249937	0.00541614	2	-4.95101e-06	1.35369e-07
2	1	0	1	1	421.166	-0.0114847	-0.0116158	0.00524756	2	-4.87947e-06	6.09546e-08
2	1	0	1	1	421.179	0.00171023	0.00157547	0.00511982	2	-4.81089e-06	8.06612e-09
2	1	0	0	1	421.192	0.0151051	0.0150366	0.00500612	2	-4.74285e-06	7.52752e-08
2	1	0	1	1	421.206	0.0285	0.0284004	0.00489335	2	-4.67644e-06	1.38973e-07
2	1	0	1	1	421.219	0.041695	0.0415732	0.00483411	2	-4.61202e-06	2.0097e-07
2	1	0	0	1	421.232	0.0550899	0.0550121	0.00476784	2	-4.54755e-06	2.62289e-07
2	1	0	1	1	421.246	0.0684847	0.0684058	0.00470145	2	-4.4838e-06	3.21607e-07
2	1	0	1	1	421.259	0.0816797	0.0816004	0.00466826	2	-4.42183e-06	3.80932e-07
2	1	0	0	1	421.272	0.0951412	0.0950317	0.00462964	2	-4.35939e-06	4.39963e-07
2	0	0	1	1	421.279	0.0984733	0.0984055	0.00354257	2	-4.3296e-06	3.48609e-07
2	0	0	0	1	421.292	0.0850118	0.084876	0.00126377	2	-4.30295e-06	1.07264e-07
2	0	0	0	1	421.306	0.0718168	0.0716764	0.000691625	2	-4.29058e-06	4.95732e-08
2	0	0	1	1	421.319	0.0584219	0.0583012	0.000297447	2	-4.28429e-06	1.73415e-08
2	0	0	0	1	421.332	0.045027	0.0448818	-3.22818e-05	2	-4.2828e-06	1.44886e-09
2	0	0	0	1	421.346	0.0318321	0.0316611	-0.000305621	2	-4.28526e-06	9.67632e-09
2	0	0	1	1	421.359	0.0184372	0.0182772	-0.000550597	2	-4.29124e-06	1.00634e-08
2	0	0	0	1	421.372	0.00504229	0.00488	-0.000782037	2	-4.30041e-06	3.81634e-09
2	0	0	0	1	421.386	-0.00815267	-0.00835173	-0.000998211	2	-4.31242e-06	8.33678e-09
2	0	0	1	1	421.399	-0.0215476	-0.0217326	-0.00120146	2	-4.3274e-06	2.6111e-08
2	0	0	0	1	421.412	-0.0349425	-0.0351406	-0.00140863	2	-4.34511e-06	4.95003e-08
2	0	0	0	1	421.426	-0.0481374	-0.0483385	-0.00160027	2	-4.36518e-06	7.73545e-08
2	0	0	1	1	421.439	-0.0615323	-0.061739	-0.00180007	2	-4.38821e-06	1.11135e-07
2	0	0	0	1	421.452	-0.0749272	-0.0751418	-0.0020074	2	-4.4139e-06	1.5084e-07
2	0	0	0	1	421.466	-0.0881888	-0.0883576	-0.00223325	2	-4.44201e-06	1.97324e-07
2	0	0	1	1	421.479	-0.101584	-0.101758	-0.00245864	2	-4.47357e-06	2.50186e-07
2	0	0	1	1	421.492	-0.114779	-0.114954	-0.00270652	2	-4.50786e-06	3.11124e-07
2	0	0	0	1	421.506	-0.128174	-0.128377	-0.00301807	2	-4.5464e-06	3.8745e-07
2	0	0	1	1	421.519	-0.141568	-0.141771	-0.00335151	2	-4.5893e-06	4.75146e-07
2	0	0	1	1	421.532	-0.154763	-0.154965	-0.00375804	2	-4.63637e-06	5.82363e-07
2	0	0	0	1	421.546	-0.168158	-0.168391	-0.00426529	2	-4.69029e-06	7.18234e-07
2	0	0	1	1	421.559	-0.181553	-0.18179	-0.00485207	2	-4.75149e-06	8.82059e-07
2	0	0	1	1	421.572	-0.194748	-0.194974	-0.00550758	2	-4.82001e-06	1.07383e-06
2	0	0	0	1	421.586	-0.208143	-0.208348	-0.00625659	2	-4.899e-06	1.30355e-06
2	0	0	1	1	421.599	-0.221538	-0.221767	-0.00702813	2	-4.98839e-06	1.5586e-06
2	0	0	1	1	421.612	-0.234733	-0.234953	-0.00780225	2	-5.08657e-06	1.83316e-06
2	0	0	0	1	421.626	-0.248128	-0.248368	-0.00853552	2	-5.19638e-06	2.11995e-06
2	0	0	1	1	421.639	-0.261456	-0.261664	-0.00917874	2	-5.31453e-06	2.40175e-06
2	0	0	1	1	421.652	-0.274784	-0.275005	-0.00972881	2	-5.44058e-06	2.67547e-06
2	0	0	0	1	421.666	-0.288179	-0.288396	-0.0101781	2	-5.57404e-06	2.93532e-06
2	0	0	0	1	421.709	-0.331363	-0.331553	-0.0104458	2	-6.01899e-06	3.46334e-06
2	0	0	1	1	421.722	-0.344758	-0.34498	-0.0102938	2	-6.15841e-06	3.55116e-06
2	0	0	0	1	421.736	-0.358153	-0.358385	-0.0100983	2	-6.2955e-06	3.61909e-06
2	0	0	0	1	421.749	-0.371348	-0.371557	-0.00986118	2	-6.42769e-06	3.66399e-06
2	0	0	1	1	421.762	-0.384742	-0.384991	-0.00965905	2	-6.55873e-06	3.71864e-06
2	0	0	0	1	421.776	-0.398137	-0.398383	-0.00948563	2	-6.68728e-06	3.77891e-06
2	0	0	0	1	421.789	-0.411332	-0.411559	-0.00934802	2	-6.8119e-06	3.84726e-06
2	0	0	1	1	421.802	-0.424727	-0.424952	-0.00920925	2	-6.93634e-06	3.91349e-06
2	0	0	0	1	421.816	-0.438079	-0.438292	-0.00914256	2	-7.05871e-06	4.00711e-06
2	0	0	0	1	421.829	-0.451384	-0.451573	-0.00908235	2	-7.1802e-06	4.10134e-06
2	0	0	1	1	421.842	-0.464779	-0.464989	-0.00905645	2	-7.30198e-06	4.21115e-06
2	0	0	1	1	421.855	-0.477974	-0.478199	-0.0090662	2	-7.42192e-06	4.33545e-06
2	0	0	0	1	421.869	-0.491368	-0.491599	-0.00905177	2	-7.54359e-06	4.44984e-06
2	0	0	1	1	421.882	-0.504763	-0.504997	-0.00908989	2	-7.66552e-06	4.59037e-06
2	0	0	1	1	421.895	-0.517958	-0.51818	-0.00915081	2	-7.78625e-06	4.74176e-06
2	0	0	0	1	421.909	-0.531353	-0.531561	-0.00922741	2	-7.90976e-06	4.90493e-06
2	0	0	1	1	421.922	-0.544748	-0.544956	-0.00936443	2	-8.03455e-06	5.1032e-06
2	0	0	1	1	421.935	-0.557943	-0.558176	-0.00948083	2	-8.15915e-06	5.29197e-06
2	0	0	0	1	421.949	-0.571338	-0.571576	-0.00968323	2	-8.28794e-06	5.5347e-06
2	0	0	1	1	421.962	-0.584733	-0.58495	-0.00989397	2	-8.41923e-06	5.78747e-06
2	0	0	1	1	421.975	-0.597928	-0.598153	-0.0101659	2	-8.55198e-06	6.08075e-06
2	0	0	0	1	421.977	-0.599827	-0.600054	-0.0102217	2	-8.57137e-06	6.1336e-06