File: TAP_Report/Data/MB_PB/100 uM MB 10mM PB  second ito_08_CV_C01_2.mpt
EC-Lab ASCII FILE
Nb header lines : 53

Cyclic Voltammetry

Run on channel : 1 (SN 0696)
User :
Electrode connection : standard
Ewe ctrl range : min = -10.00 V, max = 10.00 V
Ewe,I filtering : 50 kHz
Channel : Grounded
Acquisition started on : 05/17/2017 12:39:23
Saved on :
	File : 100 uM MB 10mM PB  second ito_08_CV_C01.mpr
	Directory : \\userfs\st659\w2k\EC-Lab\Data\ITO Characterisation 17-5-17\
	Host : 144.32.136.43
Device : SP-300 (SN 0182)
Address : USB
EC-Lab for windows v10.44 (software)
Internet server v10.44 (firmware)
Command interpretor v10.44 (firmware)
Electrode material :
Initial state :
Electrolyte :
Comments :
Cable : standard
Electrode surface area : 0.001 cm²
Characteristic mass : 0.001 g
Equivalent Weight : 0.000 g/eq.
Density : 0.000 g/cm3
Ei (V)              0.000
vs.                 Eoc
dE/dt               5000.000
dE/dt unit          mV/s
E1 (V)              0.100
vs.                 Ref
Step percent        50
N                   10
E range min (V)     -10.000
E range max (V)     10.000
I Range             Auto
I Range min         Unset
I Range max         Unset
I Range init        Unset
Bandwidth           8
E2 (V)              -0.600
vs.                 Ref
nc cycles           2
Reverse Scan        1
Ef (V)              0.000
vs.                 Eoc

mode	ox/red	error	control changes	counter inc.	time/s	control/V	Ewe/V	<I>/mA	cycle number	(Q-Qo)/C	P/W
2	1	0	0	1	426.774	-0.599827	-0.600176	-0.0345974	2	-3.4612e-06	2.07645e-05
2	1	0	1	1	426.777	-0.584333	-0.584623	-0.0251533	2	-3.55061e-06	1.47052e-05
2	1	0	1	1	426.781	-0.564341	-0.564619	-0.0170732	2	-3.63335e-06	9.63985e-06
2	1	0	1	1	426.785	-0.544348	-0.544596	-0.0114891	2	-3.68944e-06	6.25692e-06
2	1	0	1	1	426.789	-0.524356	-0.524595	-0.00739438	2	-3.72643e-06	3.87906e-06
2	1	0	1	1	426.793	-0.504363	-0.504614	-0.00431594	2	-3.74931e-06	2.17788e-06
2	1	0	1	1	426.797	-0.484371	-0.484624	-0.00196101	2	-3.76145e-06	9.50351e-07
2	1	0	1	1	426.801	-0.464379	-0.46462	-0.000116959	2	-3.76531e-06	5.43415e-08
2	1	0	1	1	426.805	-0.444386	-0.444613	0.0013363	2	-3.76263e-06	5.94137e-07
2	1	0	1	1	426.809	-0.424394	-0.424643	0.00250862	2	-3.75475e-06	1.06527e-06
2	1	0	1	1	426.813	-0.404402	-0.404645	0.00352045	2	-3.74255e-06	1.42453e-06
2	1	0	1	1	426.817	-0.384409	-0.384661	0.00436925	2	-3.72667e-06	1.68068e-06
2	1	0	1	1	426.821	-0.364417	-0.364637	0.00511688	2	-3.70761e-06	1.8658e-06
2	1	0	1	1	426.825	-0.344424	-0.344679	0.00585076	2	-3.68562e-06	2.01663e-06
2	1	0	1	1	426.829	-0.324432	-0.324637	0.0065341	2	-3.6608e-06	2.12121e-06
2	1	0	1	1	426.833	-0.30444	-0.304679	0.00724041	2	-3.63322e-06	2.206e-06
2	1	0	1	1	426.837	-0.284447	-0.284633	0.00797359	2	-3.60273e-06	2.26954e-06
2	1	0	1	1	426.841	-0.264455	-0.264661	0.00878601	2	-3.56916e-06	2.32531e-06
2	1	0	1	1	426.845	-0.244463	-0.244695	0.00977447	2	-3.53198e-06	2.39176e-06
2	1	0	1	1	426.849	-0.22447	-0.224715	0.010976	2	-3.49047e-06	2.46647e-06
2	1	0	1	1	426.853	-0.204478	-0.204694	0.0124324	2	-3.44361e-06	2.54483e-06
2	1	0	1	1	426.857	-0.184485	-0.184697	0.0141615	2	-3.39026e-06	2.61559e-06
2	1	0	1	1	426.861	-0.164493	-0.164705	0.0160318	2	-3.32968e-06	2.64052e-06
2	1	0	1	1	426.865	-0.144501	-0.144702	0.0179615	2	-3.26154e-06	2.59906e-06
2	1	0	1	1	426.869	-0.124508	-0.124687	0.019635	2	-3.18612e-06	2.44824e-06
2	1	0	1	1	426.873	-0.104516	-0.104693	0.0210065	2	-3.10446e-06	2.19924e-06
2	1	0	1	1	426.877	-0.0845236	-0.0847166	0.0218052	2	-3.01856e-06	1.84726e-06
2	1	0	1	1	426.881	-0.0645312	-0.06472	0.0222126	2	-2.9304e-06	1.4376e-06
2	1	0	1	1	426.885	-0.0445388	-0.0447291	0.0222983	2	-2.84122e-06	9.97385e-07
2	1	0	1	1	426.889	-0.0245464	-0.0247196	0.0220081	2	-2.75253e-06	5.44032e-07
2	1	0	1	1	426.893	-0.00453553	-0.00472793	0.0214133	2	-2.66568e-06	1.01241e-07
2	1	0	1	1	426.897	0.0157715	0.0156332	0.0208915	2	-2.58091e-06	3.26602e-07
2	1	0	1	1	426.901	0.0357639	0.0356116	0.020135	2	-2.49893e-06	7.17037e-07
2	1	0	1	1	426.905	0.0557563	0.05562	0.0194958	2	-2.41971e-06	1.08436e-06
2	1	0	1	1	426.909	0.0757486	0.0756107	0.0189864	2	-2.34288e-06	1.43558e-06
2	1	0	1	1	426.913	0.0947414	0.0945763	0.018397	2	-2.27185e-06	1.73992e-06
2	1	0	0	1	426.914	0.100239	0.100089	0.0182036	2	-2.25169e-06	1.82199e-06
2	0	0	0	1	426.915	0.0937418	0.093697	0.0135717	2	-2.23297e-06	1.27163e-06
2	0	0	0	1	426.919	0.0737494	0.073686	0.00554545	2	-2.19732e-06	4.08622e-07
2	0	0	0	1	426.923	0.053757	0.0536932	0.00162108	2	-2.18395e-06	8.7041e-08
2	0	0	0	1	426.927	0.0337647	0.0336833	-0.000786167	2	-2.1828e-06	2.64807e-08
2	0	0	0	1	426.931	0.0137723	0.0137005	-0.00245072	2	-2.18958e-06	3.35761e-08
2	0	0	0	1	426.935	-0.00655328	-0.00667316	-0.00384768	2	-2.20233e-06	2.56762e-08
2	0	0	0	1	426.939	-0.0265457	-0.0266702	-0.00485115	2	-2.21982e-06	1.29381e-07
2	0	0	0	1	426.943	-0.046538	-0.0466742	-0.00576356	2	-2.24114e-06	2.69009e-07
2	0	0	0	1	426.947	-0.0665304	-0.0666616	-0.00662574	2	-2.26601e-06	4.41682e-07
2	0	0	0	1	426.951	-0.0865228	-0.0866548	-0.00746316	2	-2.29432e-06	6.46719e-07
2	0	0	0	1	426.955	-0.106515	-0.10663	-0.00832915	2	-2.32596e-06	8.88134e-07
2	0	0	0	1	426.959	-0.126508	-0.126613	-0.0092483	2	-2.36125e-06	1.17096e-06
2	0	0	0	1	426.963	-0.1465	-0.14663	-0.0102982	2	-2.40038e-06	1.51002e-06
2	0	0	0	1	426.967	-0.166492	-0.166632	-0.0114045	2	-2.44384e-06	1.90037e-06
2	0	0	0	1	426.971	-0.186485	-0.186634	-0.0127908	2	-2.49231e-06	2.38719e-06
2	0	0	0	1	426.975	-0.206477	-0.206611	-0.0144161	2	-2.54679e-06	2.97852e-06
2	0	0	0	1	426.979	-0.226469	-0.226631	-0.0162127	2	-2.60811e-06	3.6743e-06
2	0	0	0	1	426.983	-0.246462	-0.246607	-0.0182132	2	-2.67705e-06	4.49151e-06
2	0	0	0	1	426.987	-0.266454	-0.266594	-0.0200983	2	-2.75386e-06	5.3581e-06
2	0	0	0	1	426.991	-0.286447	-0.286561	-0.0220174	2	-2.83832e-06	6.30933e-06
2	0	0	0	1	426.995	-0.306439	-0.306572	-0.0236656	2	-2.92983e-06	7.25519e-06
2	0	0	0	1	426.999	-0.326431	-0.326574	-0.025136	2	-3.02778e-06	8.20877e-06
2	0	0	0	1	427.003	-0.346424	-0.346605	-0.0263389	2	-3.13097e-06	9.12919e-06
2	0	0	0	1	427.007	-0.366416	-0.366573	-0.0272355	2	-3.23817e-06	9.98379e-06
2	0	0	0	1	427.011	-0.386408	-0.386577	-0.027829	2	-3.34845e-06	1.0758e-05
2	0	0	0	1	427.015	-0.406401	-0.406587	-0.0280385	2	-3.46017e-06	1.14001e-05
2	0	0	0	1	427.019	-0.426393	-0.426571	-0.0280093	2	-3.57247e-06	1.1948e-05
2	0	0	0	1	427.023	-0.446386	-0.446543	-0.0279507	2	-3.68444e-06	1.24812e-05
2	0	0	0	1	427.027	-0.466378	-0.466547	-0.0278407	2	-3.79594e-06	1.2989e-05
2	0	0	0	1	427.031	-0.48637	-0.486572	-0.0276758	2	-3.907e-06	1.34663e-05
2	0	0	0	1	427.035	-0.506363	-0.506555	-0.0276915	2	-4.01767e-06	1.40273e-05
2	0	0	0	1	427.039	-0.526355	-0.526542	-0.0277963	2	-4.12852e-06	1.4636e-05
2	0	0	0	1	427.043	-0.546347	-0.546519	-0.0277233	2	-4.23944e-06	1.51513e-05
2	0	0	0	1	427.047	-0.56634	-0.566531	-0.0279681	2	-4.35086e-06	1.58448e-05
2	0	0	0	1	427.051	-0.586332	-0.586523	-0.0282156	2	-4.46307e-06	1.65491e-05
2	0	0	0	1	427.054	-0.599827	-0.600024	-0.0285838	2	-4.53955e-06	1.7151e-05
2	0	0	1	1	427.054	-0.600827	-0.600981	-0.0285709	2	-4.54526e-06	1.71706e-05